Data from Reflection__16__09-30-34-442.txt Node

Date: Fri Mar 07 09:30:34 COT 2025
User: Unisinu
Spectrometer: SR401173
Trigger mode: 0
Integration Time (sec): 1,000000E-1
Scans to average: 5
Electric dark correction enabled: true
Nonlinearity correction enabled: false
Boxcar width: 4
XAxis mode: Wavelengths
Number of Pixels in Spectrum: 3648
>>>>>Begin Spectral Data<<<<<
344,63	51,03
344,852	-228,38
345,073	-32,35
345,295	4,2
345,516	65,21
345,738	-1020,69
345,959	34,06
346,18	125,64
346,402	-381,31
346,623	229,81
346,844	-228,38
347,066	145,45
347,287	190,82
347,508	110,27
347,73	52,94
347,951	37,85
348,172	26,75
348,394	23,33
348,615	17,61
348,836	16,57
349,057	13,17
349,278	9,99
349,5	7,86
349,721	9,31
349,942	11,39
350,163	14,12
350,384	12,66
350,605	13,12
350,827	14,61
351,048	14,9
351,269	11,64
351,49	8,68
351,711	6,63
351,932	4,03
352,153	4,35
352,374	0,71
352,595	2,83
352,816	1,44
353,037	1,95
353,258	5,01
353,479	7,42
353,7	5,79
353,92	4,19
354,141	-1,11
354,362	-1,49
354,583	-5,19
354,804	-2,55
355,025	-5,24
355,246	-3,59
355,466	-3,48
355,687	3,26
355,908	1,82
356,129	6,49
356,35	9,34
356,57	9,34
356,791	7,36
357,012	5,56
357,232	4,87
357,453	3,62
357,674	-0,25
357,894	-0,48
358,115	-0,51
358,336	0,86
358,556	3,09
358,777	2,7
358,997	8,78
359,218	8,62
359,439	11,11
359,659	11,37
359,88	13,73
360,1	12,77
360,321	11,14
360,541	9,8
360,762	7,91
360,982	6,55
361,203	3,96
361,423	2,21
361,643	1,85
361,864	1,01
362,084	1,47
362,304	2,63
362,525	2,24
362,745	3,18
362,966	3,19
363,186	6,6
363,406	7,19
363,626	9,12
363,847	8,03
364,067	9,87
364,287	9,68
364,507	10,56
364,728	11,54
364,948	10,24
365,168	9,96
365,388	9,6
365,608	6,86
365,828	9,2
366,049	8,9
366,269	8,41
366,489	7,83
366,709	6,31
366,929	6,75
367,149	6,25
367,369	6,19
367,589	7,91
367,809	5,58
368,029	3,49
368,249	3,88
368,469	2,67
368,689	2,87
368,909	2,97
369,129	1,51
369,349	0,93
369,569	1,07
369,789	2,88
370,009	3,17
370,228	3,64
370,448	4,53
370,668	4,96
370,888	4,77
371,108	6,14
371,327	6,27
371,547	5,83
371,767	4,41
371,987	4,2
372,206	2,87
372,426	4,05
372,646	2,17
372,866	1,34
373,085	-0,67
373,305	0,41
373,525	1,3
373,744	1,8
373,964	1,63
374,183	2,81
374,403	3,03
374,623	5,26
374,842	5,5
375,062	6,38
375,281	5,37
375,501	5,23
375,72	5,18
375,94	5,58
376,159	4,79
376,379	4,26
376,598	3,37
376,818	3,66
377,037	2,9
377,256	2,98
377,476	2,18
377,695	1,94
377,914	1,72
378,134	1,84
378,353	1,94
378,572	1,78
378,792	2
379,011	2,9
379,23	3,5
379,45	3,86
379,669	4,91
379,888	5,21
380,107	5,51
380,327	5,64
380,546	6,43
380,765	5,81
380,984	5,31
381,203	4,21
381,422	3,04
381,641	2,35
381,861	2,3
382,08	0,98
382,299	0,73
382,518	0,3
382,737	0,51
382,956	0,61
383,175	0,99
383,394	1,88
383,613	1,35
383,832	1,34
384,051	2,28
384,27	2,29
384,489	3,09
384,708	2,92
384,927	3,43
385,145	3,45
385,364	3,43
385,583	3,21
385,802	3,35
386,021	3,31
386,24	3,18
386,458	2,88
386,677	2,68
386,896	2,44
387,115	2,42
387,334	2,15
387,552	2,56
387,771	2,47
387,99	2,38
388,208	2,56
388,427	2,48
388,646	2,74
388,864	2,61
389,083	2,7
389,302	3,02
389,52	3,1
389,739	3,05
389,957	2,99
390,176	2,82
390,394	2,81
390,613	2,73
390,832	2,99
391,05	2,88
391,269	2,34
391,487	2,1
391,705	2,07
391,924	2,3
392,142	2,26
392,361	2,27
392,579	2,27
392,798	2,07
393,016	2,08
393,234	1,95
393,453	2,17
393,671	2,46
393,889	2,29
394,108	2,45
394,326	2,57
394,544	2,71
394,762	2,67
394,981	2,83
395,199	2,7
395,417	2,41
395,635	2,12
395,854	2,4
396,072	2,39
396,29	2,02
396,508	1,93
396,726	1,89
396,944	1,76
397,162	1,98
397,38	1,81
397,598	1,78
397,817	1,72
398,035	1,73
398,253	1,99
398,471	1,95
398,689	2,09
398,907	2,17
399,125	2,18
399,343	2,32
399,561	2,49
399,778	2,41
399,996	2,33
400,214	2,27
400,432	2,34
400,65	2,27
400,868	2,25
401,086	2,27
401,304	2,31
401,521	2,04
401,739	2,17
401,957	2,23
402,175	2,06
402,392	2,05
402,61	2,03
402,828	1,94
403,046	1,84
403,263	1,8
403,481	2
403,699	1,89
403,916	1,82
404,134	2,01
404,352	2
404,569	2,01
404,787	2,05
405,004	2,04
405,222	2,07
405,44	2,03
405,657	2,02
405,875	2,05
406,092	1,96
406,31	2,01
406,527	2,07
406,745	2,02
406,962	2,02
407,18	2,01
407,397	2,08
407,614	2,01
407,832	2,01
408,049	2,04
408,267	2,09
408,484	1,96
408,701	2,03
408,919	2,11
409,136	2,19
409,353	2,16
409,57	2,29
409,788	2,38
410,005	2,48
410,222	2,37
410,439	2,42
410,657	2,43
410,874	2,36
411,091	2,24
411,308	2,25
411,525	2,21
411,742	2,13
411,96	2,02
412,177	2,04
412,394	2,07
412,611	2
412,828	2,01
413,045	1,99
413,262	1,99
413,479	2,09
413,696	2,01
413,913	1,99
414,13	2,02
414,347	2,02
414,564	2,13
414,781	2,08
414,998	2,07
415,215	2,06
415,432	1,98
415,648	2,09
415,865	2,19
416,082	2,12
416,299	2,09
416,516	2,04
416,733	2,16
416,949	2,17
417,166	2,06
417,383	2,12
417,6	2,11
417,816	2,01
418,033	2,04
418,25	2,1
418,467	2,13
418,683	2,07
418,9	2,2
419,117	2,3
419,333	2,21
419,55	2,13
419,766	2,17
419,983	2,26
420,2	2,27
420,416	2,23
420,633	2,33
420,849	2,3
421,066	2,21
421,282	2,27
421,499	2,38
421,715	2,38
421,932	2,41
422,148	2,29
422,365	2,3
422,581	2,18
422,797	2,17
423,014	2,23
423,23	2,26
423,446	2,18
423,663	2,2
423,879	2,17
424,095	2,2
424,312	2,22
424,528	2,34
424,744	2,34
424,961	2,35
425,177	2,25
425,393	2,37
425,609	2,4
425,825	2,29
426,042	2,37
426,258	2,34
426,474	2,22
426,69	2,23
426,906	2,17
427,122	2,16
427,338	2,08
427,554	2,12
427,771	2,23
427,987	2,19
428,203	2,24
428,419	2,23
428,635	2,32
428,851	2,44
429,067	2,52
429,283	2,49
429,499	2,46
429,714	2,47
429,93	2,53
430,146	2,43
430,362	2,48
430,578	2,4
430,794	2,36
431,01	2,3
431,226	2,37
431,441	2,3
431,657	2,3
431,873	2,29
432,089	2,33
432,305	2,31
432,52	2,25
432,736	2,28
432,952	2,3
433,167	2,28
433,383	2,35
433,599	2,27
433,814	2,2
434,03	2,15
434,246	2,18
434,461	2,24
434,677	2,25
434,893	2,22
435,108	2,18
435,324	2,12
435,539	2,11
435,755	2,07
435,97	2,14
436,186	2,13
436,401	2,1
436,617	2,08
436,832	2,12
437,048	2,17
437,263	2,2
437,478	2,24
437,694	2,33
437,909	2,36
438,125	2,37
438,34	2,33
438,555	2,33
438,771	2,28
438,986	2,29
439,201	2,3
439,417	2,28
439,632	2,35
439,847	2,33
440,062	2,32
440,278	2,39
440,493	2,36
440,708	2,38
440,923	2,33
441,138	2,33
441,353	2,36
441,569	2,32
441,784	2,32
441,999	2,31
442,214	2,34
442,429	2,38
442,644	2,36
442,859	2,38
443,074	2,36
443,289	2,35
443,504	2,3
443,719	2,32
443,934	2,36
444,149	2,29
444,364	2,21
444,579	2,24
444,794	2,23
445,009	2,23
445,224	2,27
445,438	2,3
445,653	2,32
445,868	2,2
446,083	2,26
446,298	2,28
446,513	2,24
446,727	2,34
446,942	2,32
447,157	2,36
447,372	2,34
447,586	2,34
447,801	2,43
448,016	2,48
448,23	2,55
448,445	2,65
448,66	2,63
448,874	2,68
449,089	2,64
449,304	2,73
449,518	2,71
449,733	2,71
449,947	2,68
450,162	2,66
450,376	2,67
450,591	2,65
450,805	2,65
451,02	2,69
451,234	2,67
451,449	2,67
451,663	2,71
451,878	2,69
452,092	2,74
452,307	2,74
452,521	2,75
452,735	2,74
452,95	2,67
453,164	2,68
453,378	2,7
453,593	2,66
453,807	2,71
454,021	2,68
454,236	2,68
454,45	2,64
454,664	2,63
454,878	2,69
455,093	2,72
455,307	2,7
455,521	2,73
455,735	2,69
455,949	2,7
456,163	2,68
456,377	2,7
456,592	2,69
456,806	2,66
457,02	2,6
457,234	2,61
457,448	2,57
457,662	2,68
457,876	2,63
458,09	2,66
458,304	2,67
458,518	2,69
458,732	2,73
458,946	2,74
459,16	2,75
459,374	2,8
459,588	2,74
459,801	2,81
460,015	2,77
460,229	2,76
460,443	2,77
460,657	2,72
460,871	2,71
461,085	2,71
461,298	2,67
461,512	2,65
461,726	2,61
461,94	2,67
462,153	2,69
462,367	2,7
462,581	2,77
462,794	2,83
463,008	2,84
463,222	2,89
463,435	2,87
463,649	2,87
463,863	2,83
464,076	2,79
464,29	2,81
464,503	2,78
464,717	2,7
464,93	2,76
465,144	2,76
465,357	2,79
465,571	2,82
465,784	2,83
465,998	2,87
466,211	2,88
466,425	2,85
466,638	2,86
466,852	2,8
467,065	2,75
467,278	2,73
467,492	2,77
467,705	2,78
467,918	2,78
468,132	2,72
468,345	2,78
468,558	2,8
468,772	2,81
468,985	2,83
469,198	2,82
469,411	2,8
469,624	2,79
469,838	2,85
470,051	2,88
470,264	2,89
470,477	2,97
470,69	2,95
470,903	2,96
471,117	2,97
471,33	2,94
471,543	2,95
471,756	2,94
471,969	2,93
472,182	2,93
472,395	2,87
472,608	2,89
472,821	2,89
473,034	2,87
473,247	2,87
473,46	2,9
473,673	2,9
473,886	2,94
474,098	2,93
474,311	2,97
474,524	3,05
474,737	3,08
474,95	3,09
475,163	3,09
475,376	3,09
475,588	3,11
475,801	3,08
476,014	3,09
476,227	3,07
476,439	3,04
476,652	3,04
476,865	3,08
477,078	3,11
477,29	3,11
477,503	3,08
477,716	3,11
477,928	3,11
478,141	3,1
478,353	3,09
478,566	3,17
478,779	3,17
478,991	3,12
479,204	3,14
479,416	3,17
479,629	3,15
479,841	3,2
480,054	3,21
480,266	3,24
480,479	3,17
480,691	3,18
480,904	3,25
481,116	3,25
481,328	3,25
481,541	3,29
481,753	3,26
481,965	3,27
482,178	3,27
482,39	3,33
482,602	3,35
482,815	3,32
483,027	3,28
483,239	3,32
483,451	3,26
483,664	3,26
483,876	3,21
484,088	3,21
484,3	3,2
484,513	3,13
484,725	3,16
484,937	3,21
485,149	3,17
485,361	3,27
485,573	3,28
485,785	3,3
485,997	3,29
486,209	3,29
486,421	3,32
486,633	3,35
486,845	3,36
487,057	3,4
487,269	3,38
487,481	3,41
487,693	3,48
487,905	3,54
488,117	3,52
488,329	3,54
488,541	3,51
488,753	3,53
488,965	3,51
489,177	3,52
489,388	3,5
489,6	3,51
489,812	3,48
490,024	3,51
490,236	3,54
490,447	3,58
490,659	3,58
490,871	3,62
491,083	3,62
491,294	3,65
491,506	3,65
491,718	3,68
491,929	3,7
492,141	3,7
492,353	3,74
492,564	3,78
492,776	3,78
492,987	3,79
493,199	3,82
493,41	3,86
493,622	3,86
493,834	3,9
494,045	3,91
494,257	3,92
494,468	3,88
494,679	3,91
494,891	3,93
495,102	3,91
495,314	3,91
495,525	3,95
495,737	3,92
495,948	3,95
496,159	3,95
496,371	3,99
496,582	3,99
496,793	4,03
497,005	4,06
497,216	4,09
497,427	4,09
497,638	4,12
497,85	4,15
498,061	4,2
498,272	4,21
498,483	4,23
498,694	4,23
498,906	4,26
499,117	4,25
499,328	4,28
499,539	4,25
499,75	4,24
499,961	4,26
500,172	4,3
500,383	4,32
500,594	4,35
500,805	4,37
501,016	4,41
501,227	4,42
501,438	4,51
501,649	4,54
501,86	4,53
502,071	4,52
502,282	4,62
502,493	4,64
502,704	4,68
502,915	4,73
503,126	4,8
503,337	4,82
503,547	4,87
503,758	4,93
503,969	5,02
504,18	5,04
504,391	5,1
504,601	5,15
504,812	5,16
505,023	5,19
505,234	5,24
505,444	5,27
505,655	5,31
505,866	5,32
506,076	5,33
506,287	5,34
506,497	5,37
506,708	5,44
506,919	5,48
507,129	5,51
507,34	5,59
507,55	5,6
507,761	5,67
507,971	5,71
508,182	5,83
508,392	5,89
508,603	5,94
508,813	6,01
509,024	6,13
509,234	6,18
509,445	6,25
509,655	6,32
509,865	6,42
510,076	6,43
510,286	6,48
510,497	6,56
510,707	6,64
510,917	6,65
511,127	6,72
511,338	6,77
511,548	6,79
511,758	6,85
511,968	6,9
512,179	6,97
512,389	7,05
512,599	7,1
512,809	7,21
513,019	7,29
513,23	7,42
513,44	7,49
513,65	7,6
513,86	7,73
514,07	7,8
514,28	7,81
514,49	7,87
514,7	7,89
514,91	7,93
515,12	7,97
515,33	8,07
515,54	8,09
515,75	8,07
515,96	8,14
516,17	8,26
516,38	8,34
516,59	8,46
516,8	8,56
517,01	8,71
517,22	8,81
517,429	8,92
517,639	9,07
517,849	9,2
518,059	9,33
518,269	9,46
518,478	9,57
518,688	9,7
518,898	9,78
519,108	9,91
519,317	10
519,527	10,11
519,737	10,2
519,946	10,3
520,156	10,38
520,366	10,52
520,575	10,6
520,785	10,68
520,994	10,75
521,204	10,91
521,414	11,04
521,623	11,18
521,833	11,26
522,042	11,42
522,252	11,46
522,461	11,61
522,671	11,73
522,88	11,88
523,089	11,93
523,299	12,05
523,508	12,13
523,718	12,26
523,927	12,23
524,136	12,27
524,346	12,28
524,555	12,34
524,764	12,36
524,974	12,49
525,183	12,51
525,392	12,59
525,602	12,66
525,811	12,83
526,02	12,96
526,229	13,12
526,438	13,23
526,648	13,38
526,857	13,42
527,066	13,51
527,275	13,56
527,484	13,64
527,693	13,68
527,902	13,8
528,112	13,83
528,321	13,93
528,53	13,94
528,739	14,06
528,948	14,16
529,157	14,26
529,366	14,33
529,575	14,45
529,784	14,46
529,993	14,54
530,201	14,57
530,41	14,65
530,619	14,63
530,828	14,7
531,037	14,75
531,246	14,83
531,455	14,81
531,664	14,92
531,872	14,94
532,081	15,03
532,29	15,07
532,499	15,14
532,707	15,17
532,916	15,24
533,125	15,27
533,334	15,38
533,542	15,37
533,751	15,43
533,96	15,46
534,168	15,52
534,377	15,56
534,585	15,59
534,794	15,57
535,003	15,6
535,211	15,6
535,42	15,64
535,628	15,69
535,837	15,74
536,045	15,76
536,254	15,77
536,462	15,77
536,671	15,84
536,879	15,83
537,088	15,84
537,296	15,84
537,504	15,87
537,713	15,81
537,921	15,82
538,129	15,85
538,338	15,87
538,546	15,86
538,754	15,92
538,963	15,94
539,171	15,98
539,379	15,95
539,587	16,04
539,796	16,07
540,004	16,1
540,212	16,12
540,42	16,17
540,628	16,14
540,837	16,18
541,045	16,17
541,253	16,21
541,461	16,23
541,669	16,27
541,877	16,31
542,085	16,36
542,293	16,36
542,501	16,46
542,709	16,49
542,917	16,55
543,125	16,57
543,333	16,6
543,541	16,57
543,749	16,56
543,957	16,55
544,165	16,57
544,373	16,56
544,581	16,55
544,789	16,55
544,997	16,59
545,204	16,58
545,412	16,61
545,62	16,62
545,828	16,7
546,036	16,71
546,243	16,76
546,451	16,76
546,659	16,78
546,867	16,8
547,074	16,78
547,282	16,82
547,49	16,87
547,697	16,84
547,905	16,89
548,112	16,87
548,32	16,91
548,528	16,9
548,735	16,95
548,943	16,97
549,15	16,94
549,358	16,95
549,565	16,96
549,773	16,96
549,98	17,01
550,188	16,99
550,395	17,03
550,603	16,96
550,81	17,02
551,018	17,06
551,225	17,1
551,432	17,13
551,64	17,14
551,847	17,13
552,054	17,16
552,262	17,16
552,469	17,2
552,676	17,15
552,884	17,19
553,091	17,16
553,298	17,15
553,505	17,17
553,713	17,13
553,92	17,12
554,127	17,13
554,334	17,09
554,541	17,11
554,748	17,07
554,955	17,05
555,163	16,97
555,37	16,94
555,577	16,94
555,784	16,92
555,991	16,9
556,198	16,91
556,405	16,85
556,612	16,84
556,819	16,79
557,026	16,79
557,233	16,73
557,44	16,76
557,647	16,72
557,854	16,67
558,06	16,62
558,267	16,64
558,474	16,63
558,681	16,58
558,888	16,59
559,095	16,61
559,301	16,5
559,508	16,45
559,715	16,4
559,922	16,42
560,129	16,32
560,335	16,28
560,542	16,25
560,749	16,25
560,955	16,16
561,162	16,15
561,369	16,11
561,575	16,09
561,782	16
561,988	15,99
562,195	15,92
562,402	15,91
562,608	15,84
562,815	15,77
563,021	15,68
563,228	15,66
563,434	15,59
563,641	15,54
563,847	15,52
564,054	15,48
564,26	15,39
564,467	15,29
564,673	15,22
564,879	15,2
565,086	15,16
565,292	15,13
565,498	15,07
565,705	15
565,911	14,91
566,117	14,88
566,324	14,81
566,53	14,78
566,736	14,68
566,942	14,56
567,149	14,46
567,355	14,39
567,561	14,33
567,767	14,3
567,973	14,2
568,179	14,15
568,386	14,1
568,592	14,07
568,798	14,08
569,004	14,03
569,21	14
569,416	13,96
569,622	13,87
569,828	13,84
570,034	13,76
570,24	13,74
570,446	13,65
570,652	13,61
570,858	13,56
571,064	13,51
571,27	13,41
571,476	13,41
571,681	13,37
571,887	13,34
572,093	13,26
572,299	13,23
572,505	13,12
572,711	13,05
572,916	12,96
573,122	12,95
573,328	12,88
573,534	12,82
573,739	12,76
573,945	12,71
574,151	12,67
574,357	12,69
574,562	12,61
574,768	12,57
574,973	12,52
575,179	12,48
575,385	12,42
575,59	12,42
575,796	12,35
576,001	12,34
576,207	12,28
576,413	12,26
576,618	12,21
576,824	12,16
577,029	12,09
577,234	12,12
577,44	12,03
577,645	12,03
577,851	11,93
578,056	11,89
578,262	11,88
578,467	11,9
578,672	11,89
578,878	11,9
579,083	11,78
579,288	11,81
579,494	11,77
579,699	11,82
579,904	11,78
580,109	11,73
580,315	11,67
580,52	11,61
580,725	11,54
580,93	11,55
581,135	11,49
581,341	11,45
581,546	11,36
581,751	11,34
581,956	11,33
582,161	11,33
582,366	11,28
582,571	11,33
582,776	11,27
582,981	11,22
583,186	11,17
583,391	11,17
583,596	11,12
583,801	11,09
584,006	11
584,211	10,99
584,416	10,9
584,621	10,89
584,826	10,86
585,031	10,84
585,236	10,81
585,441	10,79
585,645	10,71
585,85	10,68
586,055	10,6
586,26	10,55
586,465	10,4
586,669	10,33
586,874	10,27
587,079	10,18
587,283	10,14
587,488	10,12
587,693	10,08
587,898	10,08
588,102	10,06
588,307	10,2
588,511	10,24
588,716	10,27
588,921	10,25
589,125	10,21
589,33	10,21
589,534	10,24
589,739	10,22
589,943	10,2
590,148	10,16
590,352	10,12
590,557	10,08
590,761	10,09
590,966	10,17
591,17	10,15
591,374	10,09
591,579	10,12
591,783	10,14
591,988	10,11
592,192	10,1
592,396	10,09
592,601	10,06
592,805	10,03
593,009	10,01
593,213	10,05
593,418	10,02
593,622	9,97
593,826	10
594,03	10,05
594,234	10,05
594,439	10,05
594,643	10,04
594,847	10,06
595,051	10,05
595,255	10,1
595,459	10,09
595,663	10,11
595,867	10,06
596,071	10,12
596,275	10,16
596,48	10,15
596,684	10,14
596,888	10,17
597,091	10,11
597,295	10,11
597,499	10,08
597,703	10,15
597,907	10,08
598,111	10,11
598,315	10,08
598,519	10,12
598,723	10,06
598,926	10,11
599,13	10,12
599,334	10,14
599,538	10,06
599,742	10,03
599,945	9,92
600,149	9,98
600,353	9,95
600,557	10
600,76	9,99
600,964	9,97
601,168	9,92
601,371	9,95
601,575	9,99
601,778	10,05
601,982	9,92
602,186	9,9
602,389	9,83
602,593	9,8
602,796	9,81
603	9,82
603,203	9,77
603,407	9,73
603,61	9,69
603,814	9,73
604,017	9,69
604,221	9,72
604,424	9,67
604,627	9,64
604,831	9,62
605,034	9,59
605,238	9,58
605,441	9,58
605,644	9,51
605,847	9,54
606,051	9,5
606,254	9,53
606,457	9,48
606,661	9,43
606,864	9,43
607,067	9,43
607,27	9,34
607,473	9,38
607,677	9,28
607,88	9,2
608,083	9,14
608,286	9,12
608,489	9,13
608,692	9,11
608,895	9,07
609,098	9,09
609,301	9
609,504	9,02
609,707	9,01
609,91	8,99
610,113	8,95
610,316	8,9
610,519	8,83
610,722	8,82
610,925	8,77
611,128	8,78
611,331	8,7
611,534	8,68
611,736	8,63
611,939	8,59
612,142	8,52
612,345	8,54
612,548	8,47
612,75	8,47
612,953	8,41
613,156	8,43
613,359	8,39
613,561	8,35
613,764	8,37
613,967	8,38
614,169	8,32
614,372	8,32
614,575	8,26
614,777	8,24
614,98	8,22
615,183	8,18
615,385	8,15
615,588	8,12
615,79	8,07
615,993	8,07
616,195	8,05
616,398	8,05
616,6	8,02
616,803	8,02
617,005	8,02
617,208	8,05
617,41	8,02
617,612	8,01
617,815	7,99
618,017	8,01
618,219	7,99
618,422	8,03
618,624	8,01
618,826	7,99
619,029	7,93
619,231	7,95
619,433	7,88
619,635	7,9
619,838	7,82
620,04	7,77
620,242	7,72
620,444	7,71
620,646	7,71
620,849	7,69
621,051	7,66
621,253	7,66
621,455	7,63
621,657	7,61
621,859	7,6
622,061	7,59
622,263	7,58
622,465	7,61
622,667	7,64
622,869	7,63
623,071	7,61
623,273	7,6
623,475	7,6
623,677	7,65
623,879	7,63
624,081	7,62
624,283	7,54
624,485	7,51
624,686	7,45
624,888	7,5
625,09	7,51
625,292	7,52
625,494	7,49
625,695	7,47
625,897	7,44
626,099	7,49
626,301	7,47
626,502	7,54
626,704	7,53
626,906	7,49
627,107	7,48
627,309	7,49
627,511	7,45
627,712	7,47
627,914	7,44
628,116	7,46
628,317	7,43
628,519	7,41
628,72	7,41
628,922	7,47
629,123	7,43
629,325	7,49
629,526	7,47
629,728	7,47
629,929	7,46
630,131	7,47
630,332	7,45
630,533	7,51
630,735	7,43
630,936	7,44
631,137	7,41
631,339	7,4
631,54	7,41
631,741	7,4
631,943	7,38
632,144	7,42
632,345	7,34
632,546	7,34
632,748	7,31
632,949	7,31
633,15	7,3
633,351	7,3
633,552	7,28
633,754	7,28
633,955	7,23
634,156	7,26
634,357	7,21
634,558	7,21
634,759	7,21
634,96	7,24
635,161	7,22
635,362	7,22
635,563	7,17
635,764	7,2
635,965	7,1
636,166	7,15
636,367	7,13
636,568	7,11
636,769	7
636,97	6,97
637,171	6,97
637,371	6,96
637,572	6,9
637,773	6,94
637,974	6,89
638,175	6,85
638,376	6,81
638,576	6,86
638,777	6,81
638,978	6,72
639,179	6,68
639,379	6,66
639,58	6,59
639,781	6,56
639,981	6,54
640,182	6,51
640,383	6,42
640,583	6,42
640,784	6,43
640,984	6,4
641,185	6,35
641,385	6,35
641,586	6,32
641,786	6,33
641,987	6,29
642,187	6,31
642,388	6,31
642,588	6,3
642,789	6,3
642,989	6,29
643,19	6,23
643,39	6,16
643,59	6,11
643,791	6,09
643,991	6,03
644,191	5,93
644,392	5,86
644,592	5,86
644,792	5,8
644,993	5,76
645,193	5,75
645,393	5,74
645,593	5,65
645,793	5,66
645,994	5,65
646,194	5,66
646,394	5,57
646,594	5,57
646,794	5,56
646,994	5,54
647,194	5,54
647,395	5,58
647,595	5,55
647,795	5,54
647,995	5,5
648,195	5,53
648,395	5,49
648,595	5,49
648,795	5,45
648,995	5,34
649,194	5,31
649,394	5,29
649,594	5,21
649,794	5,21
649,994	5,18
650,194	5,22
650,394	5,2
650,594	5,23
650,793	5,32
650,993	5,38
651,193	5,4
651,393	5,51
651,592	5,45
651,792	5,44
651,992	5,32
652,192	5,37
652,391	5,36
652,591	5,33
652,791	5,22
652,99	5,18
653,19	5,06
653,389	5,06
653,589	5
653,789	5,03
653,988	4,92
654,188	4,93
654,387	4,85
654,587	4,9
654,786	4,9
654,986	4,93
655,185	4,92
655,385	4,96
655,584	4,95
655,783	5,03
655,983	4,96
656,182	5
656,382	4,96
656,581	4,97
656,78	4,94
656,979	4,96
657,179	4,95
657,378	4,98
657,577	4,87
657,777	4,9
657,976	4,84
658,175	4,8
658,374	4,73
658,573	4,71
658,773	4,65
658,972	4,66
659,171	4,6
659,37	4,62
659,569	4,58
659,768	4,57
659,967	4,55
660,166	4,57
660,365	4,54
660,564	4,51
660,763	4,43
660,962	4,46
661,161	4,41
661,36	4,38
661,559	4,37
661,758	4,38
661,957	4,34
662,156	4,32
662,355	4,35
662,554	4,36
662,753	4,34
662,952	4,35
663,15	4,35
663,349	4,34
663,548	4,37
663,747	4,4
663,946	4,43
664,144	4,38
664,343	4,34
664,542	4,32
664,74	4,29
664,939	4,24
665,138	4,23
665,336	4,15
665,535	4,06
665,734	4,06
665,932	4,07
666,131	4,03
666,329	4,01
666,528	3,99
666,726	3,99
666,925	3,95
667,124	3,95
667,322	3,92
667,52	3,89
667,719	3,86
667,917	3,9
668,116	3,9
668,314	3,84
668,513	3,87
668,711	3,87
668,909	3,86
669,108	3,94
669,306	3,93
669,504	3,92
669,703	3,89
669,901	3,88
670,099	3,98
670,297	3,97
670,496	4,04
670,694	4,05
670,892	4,02
671,09	4,03
671,288	4,05
671,487	4,11
671,685	4,09
671,883	4,09
672,081	4,07
672,279	3,99
672,477	3,96
672,675	3,92
672,873	3,9
673,071	3,84
673,269	3,79
673,467	3,78
673,665	3,71
673,863	3,72
674,061	3,74
674,259	3,77
674,457	3,8
674,655	3,81
674,853	3,9
675,051	3,9
675,249	3,93
675,446	3,98
675,644	3,97
675,842	3,96
676,04	3,95
676,238	3,94
676,435	3,91
676,633	3,85
676,831	3,81
677,028	3,75
677,226	3,78
677,424	3,77
677,621	3,83
677,819	3,78
678,017	3,78
678,214	3,83
678,412	3,89
678,61	4,02
678,807	4,09
679,005	4,05
679,202	4,06
679,4	4,06
679,597	4,13
679,795	4,18
679,992	4,17
680,19	4,14
680,387	4,12
680,584	4,18
680,782	4,22
680,979	4,24
681,177	4,16
681,374	4,11
681,571	4,15
681,769	4,21
681,966	4,26
682,163	4,28
682,361	4,24
682,558	4,25
682,755	4,29
682,952	4,37
683,149	4,47
683,347	4,46
683,544	4,5
683,741	4,49
683,938	4,43
684,135	4,53
684,332	4,62
684,53	4,7
684,727	4,76
684,924	4,89
685,121	4,94
685,318	4,98
685,515	5,14
685,712	5,21
685,909	5,22
686,106	5,17
686,303	5,14
686,5	5,17
686,697	5,14
686,893	5,14
687,09	5,17
687,287	5,17
687,484	5,35
687,681	5,37
687,878	5,53
688,075	5,6
688,271	5,74
688,468	5,87
688,665	6,05
688,862	6,18
689,058	6,36
689,255	6,41
689,452	6,62
689,648	6,72
689,845	6,88
690,042	6,95
690,238	7,11
690,435	7,17
690,632	7,28
690,828	7,34
691,025	7,54
691,221	7,62
691,418	7,71
691,614	7,85
691,811	8,11
692,007	8,24
692,204	8,44
692,4	8,55
692,597	8,75
692,793	8,89
692,99	9,12
693,186	9,29
693,382	9,63
693,579	9,81
693,775	9,99
693,971	10,16
694,168	10,47
694,364	10,62
694,56	10,87
694,757	11,04
694,953	11,35
695,149	11,38
695,345	11,57
695,542	11,82
695,738	12,13
695,934	12,29
696,13	12,51
696,326	12,76
696,522	13,03
696,718	13,2
696,914	13,49
697,111	13,74
697,307	14,05
697,503	14,27
697,699	14,54
697,895	14,91
698,091	15,09
698,287	15,28
698,483	15,53
698,679	15,77
698,874	16
699,07	16,19
699,266	16,49
699,462	16,81
699,658	17
699,854	17,23
700,05	17,52
700,246	17,81
700,441	18,18
700,637	18,53
700,833	18,93
701,029	19,12
701,224	19,42
701,42	19,65
701,616	20,02
701,811	20,33
702,007	20,68
702,203	20,89
702,398	21,18
702,594	21,34
702,79	21,79
702,985	22,04
703,181	22,45
703,376	22,73
703,572	22,97
703,767	23,26
703,963	23,63
704,158	23,96
704,354	24,42
704,549	24,61
704,745	24,93
704,94	25,14
705,136	25,47
705,331	25,82
705,526	26,06
705,722	26,24
705,917	26,54
706,112	26,67
706,308	26,99
706,503	27,3
706,698	27,72
706,894	27,96
707,089	28,25
707,284	28,59
707,479	29,07
707,675	29,31
707,87	29,67
708,065	29,93
708,26	30,24
708,455	30,5
708,65	30,91
708,845	31,27
709,04	31,64
709,236	31,83
709,431	32,24
709,626	32,51
709,821	32,81
710,016	33,12
710,211	33,48
710,406	33,77
710,601	34,07
710,796	34,27
710,99	34,6
711,185	34,86
711,38	35,16
711,575	35,51
711,77	35,82
711,965	36,09
712,16	36,29
712,355	36,43
712,549	36,72
712,744	37
712,939	37,34
713,134	37,68
713,328	38,04
713,523	38,28
713,718	38,4
713,912	38,69
714,107	38,97
714,302	39,16
714,496	39,32
714,691	39,33
714,886	39,42
715,08	39,45
715,275	39,62
715,469	39,88
715,664	40,14
715,858	40,36
716,053	40,69
716,247	41,04
716,442	41,55
716,636	41,71
716,831	41,87
717,025	42,21
717,22	42,43
717,414	42,58
717,608	42,98
717,803	43,24
717,997	43,67
718,191	43,99
718,386	44,75
718,58	45,58
718,774	46,07
718,969	46,65
719,163	47,33
719,357	47,62
719,551	47,99
719,745	48,27
719,94	48,64
720,134	48,95
720,328	49,08
720,522	49,34
720,716	49,68
720,91	49,69
721,104	50,07
721,298	50,4
721,492	50,72
721,687	50,97
721,881	51,31
722,075	51,58
722,269	51,82
722,462	51,97
722,656	52,6
722,85	52,87
723,044	53,26
723,238	53,56
723,432	53,87
723,626	54,03
723,82	54,55
724,014	54,88
724,207	55,45
724,401	55,57
724,595	55,86
724,789	56,05
724,983	56,31
725,176	56,61
725,37	56,93
725,564	57,11
725,757	57,54
725,951	57,63
726,145	57,83
726,338	58,01
726,532	58,35
726,726	58,55
726,919	58,79
727,113	59,06
727,306	59,46
727,5	59,76
727,694	60,26
727,887	60,68
728,081	61,19
728,274	61,33
728,467	61,7
728,661	62,12
728,854	62,49
729,048	62,65
729,241	63,02
729,435	63,38
729,628	63,74
729,821	63,92
730,015	64,25
730,208	64,51
730,401	64,55
730,595	64,67
730,788	64,91
730,981	65,17
731,174	65,22
731,368	65,39
731,561	65,58
731,754	65,86
731,947	65,92
732,14	66,1
732,333	66,3
732,527	66,46
732,72	66,62
732,913	66,93
733,106	67,29
733,299	67,44
733,492	67,66
733,685	67,92
733,878	68,32
734,071	68,58
734,264	68,77
734,457	68,95
734,65	69,18
734,843	69,36
735,036	69,55
735,229	69,74
735,421	69,99
735,614	69,99
735,807	70,11
736	70,23
736,193	70,44
736,386	70,54
736,578	70,57
736,771	70,7
736,964	70,76
737,157	70,92
737,349	71,18
737,542	71,21
737,735	71,45
737,927	71,5
738,12	71,51
738,313	71,61
738,505	71,76
738,698	71,94
738,89	72,01
739,083	72,14
739,276	72,4
739,468	72,51
739,661	72,59
739,853	72,84
740,046	73,07
740,238	73,41
740,431	73,62
740,623	73,82
740,815	73,92
741,008	74,08
741,2	74,24
741,393	74,51
741,585	74,61
741,777	74,76
741,97	74,84
742,162	74,84
742,354	74,87
742,546	74,91
742,739	75,07
742,931	75,21
743,123	75,27
743,315	75,3
743,508	75,31
743,7	75,4
743,892	75,57
744,084	75,82
744,276	75,97
744,468	75,99
744,66	76
744,852	76,14
745,044	76,29
745,237	76,32
745,429	76,4
745,621	76,44
745,813	76,52
746,005	76,66
746,197	76,63
746,388	76,66
746,58	76,7
746,772	76,74
746,964	76,92
747,156	76,93
747,348	76,94
747,54	76,9
747,732	76,87
747,923	77,11
748,115	77,21
748,307	77,04
748,499	77,1
748,691	77,1
748,882	77,25
749,074	77,5
749,266	77,51
749,457	77,64
749,649	77,67
749,841	77,81
750,032	78,07
750,224	78,08
750,416	78,16
750,607	78,04
750,799	78,1
750,99	78,27
751,182	78,3
751,373	78,19
751,565	78,31
751,756	78,34
751,948	78,49
752,139	78,54
752,331	78,7
752,522	78,71
752,713	78,63
752,905	78,8
753,096	78,98
753,288	78,83
753,479	78,88
753,67	78,9
753,862	78,88
754,053	78,81
754,244	78,81
754,435	78,77
754,627	78,75
754,818	78,83
755,009	79,03
755,2	79,24
755,391	79,29
755,583	79,26
755,774	79,4
755,965	79,4
756,156	79,48
756,347	79,5
756,538	79,56
756,729	79,54
756,92	79,13
757,111	78,98
757,302	78,96
757,493	78,88
757,684	78,86
757,875	78,96
758,066	79,15
758,257	79,13
758,448	79,43
758,639	81,1
758,83	83,4
759,021	86,01
759,211	86,59
759,402	86,13
759,593	85,97
759,784	84,55
759,975	84,05
760,165	83,75
760,356	83,63
760,547	83,08
760,738	82,78
760,928	82,6
761,119	82,72
761,31	82,57
761,5	82,8
761,691	83,16
761,882	83,33
762,072	82,99
762,263	83,19
762,453	82,76
762,644	82,49
762,834	82,28
763,025	82,24
763,215	82,31
763,406	81,98
763,596	82,14
763,787	82,41
763,977	82,15
764,168	82,51
764,358	82,47
764,548	82,3
764,739	82,35
764,929	82,48
765,119	82,65
765,31	82,18
765,5	82,04
765,69	82,06
765,881	81,87
766,071	81,74
766,261	81,77
766,451	81,48
766,641	81,42
766,832	81,12
767,022	81,2
767,212	81,1
767,402	81,11
767,592	81,09
767,782	81,3
767,972	81,41
768,162	81,52
768,353	81,36
768,543	81,41
768,733	81,49
768,923	81,59
769,113	81,61
769,303	81,51
769,493	81,57
769,682	81,49
769,872	81,6
770,062	81,81
770,252	81,96
770,442	81,9
770,632	82,01
770,822	82,14
771,012	82,4
771,201	82,37
771,391	82,34
771,581	82,12
771,771	82,17
771,96	82
772,15	82,28
772,34	82,19
772,529	82,11
772,719	82,15
772,909	82,11
773,098	82,14
773,288	82,33
773,478	82,2
773,667	82,38
773,857	82,23
774,046	82,34
774,236	82,52
774,425	82,34
774,615	82,36
774,804	82,51
774,994	82,34
775,183	82,36
775,373	82,31
775,562	82,39
775,752	82,44
775,941	82,26
776,13	82,17
776,32	82,07
776,509	82,01
776,698	82,27
776,888	82,24
777,077	82,31
777,266	82,36
777,456	82,29
777,645	82,41
777,834	82,54
778,023	82,69
778,212	82,72
778,402	82,62
778,591	82,61
778,78	82,6
778,969	82,43
779,158	82,41
779,347	82,25
779,536	82,3
779,725	82,31
779,914	82,39
780,103	82,45
780,292	82,36
780,481	82,28
780,67	82,42
780,859	82,43
781,048	82,38
781,237	82,39
781,426	82,31
781,615	82,28
781,804	82,34
781,993	82,6
782,182	82,8
782,37	82,62
782,559	82,73
782,748	83,03
782,937	83,04
783,126	83,14
783,314	83,09
783,503	83,08
783,692	82,95
783,88	83,09
784,069	83,24
784,258	83,33
784,446	83,32
784,635	83,36
784,824	83,25
785,012	83,32
785,201	83,24
785,389	83,41
785,578	83,22
785,766	83,38
785,955	83,17
786,143	83,04
786,332	83,21
786,52	83,39
786,709	83,48
786,897	83,55
787,086	83,78
787,274	84
787,462	83,96
787,651	84,12
787,839	84,32
788,027	84,17
788,216	84,23
788,404	84,2
788,592	84,37
788,781	84,26
788,969	84,26
789,157	84,39
789,345	84,3
789,533	84,35
789,722	84,57
789,91	84,73
790,098	84,78
790,286	84,74
790,474	84,78
790,662	84,71
790,85	84,68
791,038	84,87
791,226	84,68
791,414	84,46
791,602	84,28
791,79	84,14
791,978	83,94
792,166	84,01
792,354	84,1
792,542	84,15
792,73	84,13
792,918	83,95
793,106	84,04
793,294	84,08
793,482	84,22
793,669	84,39
793,857	84,28
794,045	84,39
794,233	84,26
794,421	84,31
794,608	84,72
794,796	84,85
794,984	84,67
795,171	84,76
795,359	84,96
795,547	84,91
795,734	84,69
795,922	84,71
796,11	84,6
796,297	84,71
796,485	84,85
796,672	85,25
796,86	85,24
797,047	85,28
797,235	85,12
797,422	85,33
797,61	85,52
797,797	85,63
797,985	85,3
798,172	85,04
798,36	84,99
798,547	84,97
798,734	84,63
798,922	85,1
799,109	85,02
799,296	84,89
799,484	84,73
799,671	85,01
799,858	85,1
800,046	84,96
800,233	84,92
800,42	85,19
800,607	85,07
800,794	85,19
800,982	85,43
801,169	85,72
801,356	85,88
801,543	85,94
801,73	86,14
801,917	86,11
802,104	86,24
802,291	86,38
802,478	86,25
802,665	86,04
802,852	86,23
803,039	85,98
803,226	85,98
803,413	85,77
803,6	85,63
803,787	85,51
803,974	85,36
804,161	85,42
804,348	85,37
804,535	85,22
804,722	85,21
804,908	85,17
805,095	85,22
805,282	85,63
805,469	86,01
805,655	85,88
805,842	85,91
806,029	86,09
806,216	86,03
806,402	86,32
806,589	86,47
806,776	86,31
806,962	86,18
807,149	86,02
807,335	86,07
807,522	86,23
807,709	86,27
807,895	86,32
808,082	86,26
808,268	86,34
808,455	86,67
808,641	86,87
808,828	86,74
809,014	87,03
809,201	86,91
809,387	86,75
809,573	86,59
809,76	86,81
809,946	86,9
810,133	87,04
810,319	86,99
810,505	86,93
810,691	86,73
810,878	86,72
811,064	86,72
811,25	86,85
811,436	86,7
811,623	86,7
811,809	86,68
811,995	86,87
812,181	87,12
812,367	87,4
812,554	87,73
812,74	88,15
812,926	88,11
813,112	88,22
813,298	88,27
813,484	88,58
813,67	88,21
813,856	88,09
814,042	88,59
814,228	88,37
814,414	88,28
814,6	88,6
814,786	88,72
814,972	88,56
815,158	87,89
815,344	88,45
815,529	88,82
815,715	88,77
815,901	89,04
816,087	89,72
816,273	89,48
816,458	89,43
816,644	89,55
816,83	89,73
817,016	89,7
817,201	89,73
817,387	89,58
817,573	89,6
817,758	89,07
817,944	89,34
818,13	89,17
818,315	88,52
818,501	88,59
818,686	88,13
818,872	88,05
819,058	87,84
819,243	87,83
819,429	87,67
819,614	87,55
819,8	87,47
819,985	87,64
820,17	87,58
820,356	87,89
820,541	87,72
820,727	87,56
820,912	87,45
821,097	87,65
821,283	88,4
821,468	88,61
821,653	89,01
821,839	88,93
822,024	89,16
822,209	89,25
822,394	88,81
822,58	88,6
822,765	88,66
822,95	88,26
823,135	87,96
823,32	88,12
823,506	88,47
823,691	88,15
823,876	88,2
824,061	88,25
824,246	88,3
824,431	87,86
824,616	87,74
824,801	87,88
824,986	87,94
825,171	87,59
825,356	87,9
825,541	87,88
825,726	88,3
825,911	88,52
826,096	88,92
826,281	89,03
826,465	89,34
826,65	89,11
826,835	89,11
827,02	88,69
827,205	88,61
827,39	88,59
827,574	88,28
827,759	88,42
827,944	88,13
828,128	88,11
828,313	88,47
828,498	88,83
828,683	88,68
828,867	88,52
829,052	88,51
829,236	88,17
829,421	88,25
829,606	88,82
829,79	88,72
829,975	88,64
830,159	88,71
830,344	88,81
830,528	89,11
830,713	89
830,897	89,43
831,082	89,07
831,266	89,13
831,45	89,19
831,635	89,18
831,819	89,02
832,004	89,42
832,188	89,33
832,372	89,34
832,557	89,27
832,741	89,27
832,925	88,89
833,109	89,01
833,294	88,86
833,478	88,55
833,662	88,35
833,846	88,4
834,03	88,43
834,215	88,65
834,399	88,94
834,583	89,01
834,767	88,95
834,951	88,91
835,135	88,8
835,319	88,92
835,503	88,98
835,687	89,33
835,871	89,38
836,055	89,2
836,239	89,16
836,423	89,07
836,607	89,03
836,791	89
836,975	89,07
837,159	88,9
837,343	88,59
837,526	88,53
837,71	88,55
837,894	88,68
838,078	88,74
838,262	88,83
838,445	89,12
838,629	88,92
838,813	88,98
838,997	88,7
839,18	88,45
839,364	88,5
839,548	88,39
839,731	88,58
839,915	88,58
840,099	88,6
840,282	88,55
840,466	88,55
840,649	88,83
840,833	89,04
841,016	88,92
841,2	89,3
841,383	89,06
841,567	89,35
841,75	89,29
841,934	89,4
842,117	89,35
842,301	89,36
842,484	89,29
842,667	89,1
842,851	88,48
843,034	88,49
843,217	88,5
843,401	88,68
843,584	88,56
843,767	88,65
843,951	88,77
844,134	88,78
844,317	89,06
844,5	89,58
844,683	89,49
844,867	89,1
845,05	88,99
845,233	89,53
845,416	89,39
845,599	89,18
845,782	89,27
845,965	89,47
846,148	89,53
846,331	89,73
846,514	89,59
846,697	89,68
846,88	89,16
847,063	89,04
847,246	89,14
847,429	88,91
847,612	88,61
847,795	88,42
847,978	88,36
848,161	88,58
848,344	88,6
848,526	88,87
848,709	88,93
848,892	89,02
849,075	89,52
849,258	89,47
849,44	89,37
849,623	89,43
849,806	89,69
849,988	89,7
850,171	89,89
850,354	89,95
850,536	89,52
850,719	89,49
850,902	89,86
851,084	90,31
851,267	90,18
851,449	89,95
851,632	90
851,814	89,94
851,997	90,29
852,179	90,53
852,362	90,06
852,544	90,59
852,727	89,83
852,909	90,29
853,092	89,93
853,274	90,1
853,456	89,91
853,639	89,7
853,821	89,98
854,003	90,61
854,186	90,05
854,368	90,16
854,55	89,97
854,732	90,66
854,915	90,64
855,097	90,47
855,279	90,78
855,461	90,6
855,643	90,01
855,826	90,05
856,008	90,48
856,19	90,45
856,372	90,09
856,554	89,62
856,736	89,49
856,918	88,89
857,1	88,94
857,282	88,72
857,464	88,88
857,646	88,56
857,828	88,7
858,01	88,82
858,192	89,1
858,374	89,25
858,556	89,73
858,738	89,55
858,919	89,8
859,101	89,77
859,283	90
859,465	90,25
859,647	89,92
859,828	89,83
860,01	90,19
860,192	90,28
860,374	90,72
860,555	91,06
860,737	90,67
860,919	90,48
861,1	90,25
861,282	90,53
861,464	90,82
861,645	90,68
861,827	90,53
862,008	90,55
862,19	90,53
862,371	90,72
862,553	90,44
862,734	90,23
862,916	90,17
863,097	89,75
863,279	89,65
863,46	89,74
863,642	89,48
863,823	89,36
864,004	89,36
864,186	89,51
864,367	89,51
864,548	89,95
864,73	90,02
864,911	90,07
865,092	89,79
865,274	90,18
865,455	90,48
865,636	90,66
865,817	90,61
865,998	90,71
866,18	90,56
866,361	90,72
866,542	90,54
866,723	90,94
866,904	90,87
867,085	90,29
867,266	89,71
867,447	90,32
867,628	90,22
867,809	89,95
867,99	90,28
868,171	91,03
868,352	91,01
868,533	90,87
868,714	91,55
868,895	91,89
869,076	91,6
869,257	91,61
869,438	91,94
869,619	91,77
869,799	91,31
869,98	91,41
870,161	91,16
870,342	90,89
870,523	91,18
870,703	91,59
870,884	91,94
871,065	91,67
871,245	91,5
871,426	91,72
871,607	91,89
871,787	91,87
871,968	91,59
872,149	91,74
872,329	91,08
872,51	90,99
872,69	91,64
872,871	91,83
873,051	91,62
873,232	90,92
873,412	91,22
873,593	91,53
873,773	91,53
873,954	91,84
874,134	92
874,314	91,37
874,495	91,09
874,675	90,99
874,856	91,13
875,036	91,37
875,216	91,15
875,396	90,92
875,577	90,59
875,757	90,13
875,937	90,75
876,117	91,02
876,298	91,31
876,478	91,96
876,658	91,93
876,838	92,42
877,018	92,83
877,198	93,41
877,379	93,49
877,559	92,91
877,739	92,72
877,919	92,12
878,099	91,62
878,279	91,18
878,459	91,02
878,639	90,98
878,819	90,98
878,999	90,97
879,179	90,98
879,359	90,84
879,538	91,23
879,718	91,52
879,898	92,25
880,078	91,99
880,258	91,29
880,438	91,83
880,617	92,21
880,797	92,38
880,977	92,9
881,157	93,25
881,336	92,71
881,516	92,26
881,696	92,79
881,876	93,03
882,055	92,55
882,235	92,26
882,414	92,5
882,594	92,4
882,774	91,99
882,953	92,37
883,133	93,06
883,312	93
883,492	93,2
883,671	92,6
883,851	92,74
884,03	92,87
884,21	92,29
884,389	93,1
884,569	93,25
884,748	92,59
884,927	92,51
885,107	92,12
885,286	92,46
885,465	92,87
885,645	92,74
885,824	93,21
886,003	92,53
886,182	92,67
886,362	92,61
886,541	92,39
886,72	92,67
886,899	92,69
887,078	92,45
887,258	92,53
887,437	92,83
887,616	93,49
887,795	93,4
887,974	93,9
888,153	93,8
888,332	94,34
888,511	94,72
888,69	94,38
888,869	93,83
889,048	93,62
889,227	93,44
889,406	93,3
889,585	92,68
889,764	92,6
889,943	91,96
890,122	91,41
890,301	91,61
890,479	91,96
890,658	92,76
890,837	92,76
891,016	93,22
891,195	93,93
891,373	93,96
891,552	94,27
891,731	95,62
891,909	95,66
892,088	95,82
892,267	94,95
892,446	94,19
892,624	93,89
892,803	93,72
892,981	94,38
893,16	94,81
893,338	93,5
893,517	93,57
893,696	94,19
893,874	95,09
894,053	96,06
894,231	96,49
894,41	96,99
894,588	96,51
894,766	95,93
894,945	97,19
895,123	98,18
895,302	98,32
895,48	97,4
895,658	98,25
895,837	98,39
896,015	97,3
896,193	97,23
896,371	97,1
896,55	96,38
896,728	96,84
896,906	97,72
897,084	100,31
897,262	100,73
897,441	100,68
897,619	102,78
897,797	104,13
897,975	107,01
898,153	105,4
898,331	104,79
898,509	105,76
898,687	103,14
898,865	102,64
899,043	101,65
899,221	101,72
899,399	103,8
899,577	101,08
899,755	102,5
899,933	102,74
900,111	98,42
900,289	97,18
900,467	98,64
900,645	100,32
900,822	98,18
901	96,12
901,178	98,21
901,356	96,74
901,534	95,39
901,711	96,25
901,889	97,6
902,067	96,23
902,244	95,6
902,422	95,81
902,6	95,5
902,777	94,23
902,955	95,17
903,133	96,58
903,31	95,96
903,488	95,96
903,665	96,49
903,843	97,12
904,02	97,7
904,198	97,74
904,375	98,45
904,553	99,33
904,73	99,76
904,908	101,46
905,085	103,25
905,263	102,72
905,44	100,83
905,617	102,75
905,795	103,51
905,972	104,06
906,149	103,98
906,327	103,22
906,504	104,3
906,681	99,94
906,858	98,2
907,036	101,25
907,213	101,03
907,39	101,17
907,567	101,75
907,744	101,76
907,921	100,92
908,099	98,93
908,276	100,85
908,453	103,65
908,63	104,03
908,807	102,44
908,984	100,73
909,161	99,4
909,338	99,67
909,515	100,59
909,692	102,19
909,869	102,94
910,046	101,75
910,223	101,18
910,4	100,24
910,576	102,37
910,753	101,22
910,93	99,97
911,107	98,12
911,284	100,32
911,461	100,39
911,637	100,4
911,814	97,42
911,991	98,6
912,168	98,22
912,344	101,89
912,521	101,56
912,698	102,68
912,874	99,87
913,051	98,87
913,227	101,34
913,404	101,91
913,581	101,76
913,757	103,93
913,934	106,14
914,11	106,82
914,287	106,46
914,463	105,94
914,64	106,3
914,816	102,79
914,993	103,66
915,169	104,42
915,345	105,62
915,522	102,32
915,698	104,4
915,875	103,48
916,051	104,87
916,227	106,86
916,403	108,99
916,58	109,97
916,756	109,45
916,932	105,26
917,108	105,38
917,285	104,92
917,461	105,17
917,637	102,66
917,813	102,33
917,989	104,34
918,165	103,35
918,342	103,46
918,518	103,04
918,694	102,62
918,87	100,96
919,046	100,8
919,222	102,45
919,398	102,92
919,574	100,92
919,75	102,95
919,926	101,97
920,102	102,21
920,278	103,82
920,453	104,91
920,629	105,03
920,805	103,24
920,981	100,92
921,157	101,29
921,333	99,88
921,508	100,54
921,684	101,87
921,86	101,76
922,036	100,28
922,211	99
922,387	101,13
922,563	104,91
922,739	100,21
922,914	100,8
923,09	101,42
923,265	100,99
923,441	100,78
923,617	102,44
923,792	105,63
923,968	105,01
924,143	102,31
924,319	106,79
924,494	106,82
924,67	103,96
924,845	102,65
925,021	100,79
925,196	99,09
925,371	99,42
925,547	98,61
925,722	98,82
925,897	99,29
926,073	100,07
926,248	101,85
926,423	107,23
926,599	111,95
926,774	114,99
926,949	116,24
927,124	120,38
927,3	119,04
927,475	120,54
927,65	119,63
927,825	126,56
928	117,42
928,175	117,33
928,351	123,3
928,526	112,08
928,701	98,42
928,876	112,35
929,051	115,83
929,226	124,48
929,401	116,56
929,576	129,34
929,751	119,81
929,926	114,35
930,101	121,12
930,276	161,61
930,45	147,48
930,625	143,93
930,8	118,51
930,975	142,73
931,15	168,73
931,325	170
931,499	180,57
931,674	195,1
931,849	171,6
932,024	212,84
932,198	152,95
932,373	225,6
932,548	99,67
932,722	62,75
932,897	76,28
933,072	67,57
933,246	115,29
933,421	156,5
933,595	124,05
933,77	175,12
933,945	162,98
934,119	190,33
934,294	191,9
934,468	142,11
934,643	67,8
934,817	47,12
934,991	32,52
935,166	54,91
935,34	20,69
935,515	49,17
935,689	42,99
935,863	96,52
936,038	145,84
936,212	287,74
936,386	241,28
936,561	378,4
936,735	364,37
936,909	243,85
937,083	169,78
937,257	152,8
937,432	142,65
937,606	135,72
937,78	134,34
937,954	127,69
938,128	117,67
938,302	106,28
938,476	99,3
938,65	136,5
938,825	205,15
938,999	161,25
939,173	154,79
939,347	125,48
939,521	121,33
939,694	134,74
939,868	131,54
940,042	135,14
940,216	107,68
940,39	87,92
940,564	124,47
940,738	125,9
940,912	166,82
941,086	297,03
941,259	175,78
941,433	241,66
941,607	222,31
941,781	250,85
941,954	214,62
942,128	141,29
942,302	126,64
942,475	129,1
942,649	106,3
942,823	106,75
942,996	144,05
943,17	168,89
943,344	372,34
943,517	329,75
943,691	280,1
943,864	328,81
944,038	260,92
944,211	143,87
944,385	282,23
944,558	199,06
944,732	166,29
944,905	77,61
945,078	86,89
945,252	65,78
945,425	100,18
945,599	132,32
945,772	185,46
945,945	190,75
946,118	158,23
946,292	162,31
946,465	315
946,638	257,53
946,812	324,94
946,985	361,8
947,158	279,21
947,331	254,69
947,504	179,66
947,677	180,93
947,851	204,45
948,024	196
948,197	289,5
948,37	226,99
948,543	163,04
948,716	142,04
948,889	122,94
949,062	126,15
949,235	140,18
949,408	144,69
949,581	128,11
949,754	88,53
949,927	115,95
950,1	109,7
950,272	276,89
950,445	-85,7
950,618	628,55
950,791	249,46
950,964	186,37
951,137	270,33
951,309	192,69
951,482	177,55
951,655	214,47
951,828	193,63
952	158,43
952,173	166,69
952,346	249,38
952,518	436,93
952,691	330,75
952,863	475,28
953,036	494,37
953,209	522,57
953,381	-384,66
953,554	-299,43
953,726	1492,09
953,899	253,94
954,071	171,32
954,244	133,16
954,416	182,71
954,589	186,35
954,761	150,63
954,933	143,56
955,106	119,8
955,278	114,58
955,451	133,94
955,623	145,97
955,795	133,17
955,967	129,18
956,14	129,72
956,312	136,39
956,484	142,18
956,656	162,84
956,829	233,07
957,001	196,8
957,173	216,14
957,345	209,97
957,517	199,45
957,689	227,11
957,861	234,33
958,034	210,48
958,206	174,35
958,378	152,4
958,55	145,98
958,722	138,16
958,894	132,88
959,066	133,25
959,238	149,29
959,41	147,66
959,581	149,31
959,753	192,77
959,925	148,28
960,097	139,66
960,269	137,75
960,441	163,01
960,613	196,87
960,784	150,3
960,956	132,35
961,128	131,5
961,3	121,02
961,471	139,19
961,643	141,42
961,815	148,16
961,986	127,81
962,158	113,52
962,33	112,72
962,501	105,21
962,673	112,94
962,845	100,68
963,016	99,26
963,188	91,41
963,359	84,32
963,531	98,46
963,702	98,62
963,874	110,78
964,045	153,18
964,217	148,37
964,388	148,96
964,559	129,76
964,731	152,81
964,902	141,67
965,073	115,95
965,245	112,24
965,416	95,65
965,587	90,49
965,759	89,12
965,93	90,58
966,101	97,78
966,272	96,3
966,444	104,45
966,615	108,57
966,786	111,98
966,957	123,34
967,128	130,21
967,299	137,04
967,47	134,14
967,641	125,94
967,813	126,12
967,984	121,47
968,155	118,76
968,326	115,31
968,497	118,78
968,668	111,91
968,839	106,03
969,009	98,97
969,18	108
969,351	103,95
969,522	99,11
969,693	99,13
969,864	97,9
970,035	99,39
970,206	103,2
970,376	107,21
970,547	115,89
970,718	106,67
970,889	107,28
971,059	109,65
971,23	105,81
971,401	111,99
971,571	104,66
971,742	91,61
971,913	90,75
972,083	89,86
972,254	100,49
972,424	92,19
972,595	91,91
972,766	100,09
972,936	92,47
973,107	97,64
973,277	109,8
973,448	102
973,618	89,35
973,788	79,65
973,959	86,86
974,129	90,11
974,3	95,8
974,47	87,38
974,64	83,61
974,811	90,61
974,981	100,52
975,151	121,47
975,322	122,04
975,492	131,43
975,662	137,16
975,832	135,86
976,002	156,31
976,173	154,85
976,343	149,23
976,513	142,73
976,683	127,87
976,853	130,66
977,023	129,22
977,193	115,13
977,363	102,27
977,533	97,44
977,704	104,57
977,874	101,6
978,044	98,95
978,213	104,97
978,383	100,27
978,553	101,16
978,723	103,13
978,893	101,99
979,063	99,11
979,233	91,55
979,403	96,27
979,573	94,86
979,742	87,26
979,912	91,77
980,082	89,79
980,252	89,67
980,421	96,68
980,591	102,48
980,761	101,59
980,931	93,34
981,1	95,58
981,27	105,76
981,439	106,9
981,609	106,53
981,779	107,79
981,948	99,87
982,118	92
982,287	100,11
982,457	110,47
982,626	111,25
982,796	108,79
982,965	104,64
983,135	96,58
983,304	100,7
983,474	103,07
983,643	106,33
983,812	95,33
983,982	94,29
984,151	90,31
984,32	92,51
984,49	94,29
984,659	98,94
984,828	100,35
984,998	103,26
985,167	103,15
985,336	112,26
985,505	109,55
985,674	116,52
985,844	107,39
986,013	116,25
986,182	112,99
986,351	104,23
986,52	100,65
986,689	97,66
986,858	96,65
987,027	91,39
987,196	91,4
987,365	89,8
987,534	86,22
987,703	91,59
987,872	91,95
988,041	90,56
988,21	96,94
988,379	95,34
988,548	106,14
988,717	100,41
988,885	115,69
989,054	117,6
989,223	117,57
989,392	112,69
989,561	117,51
989,729	110,46
989,898	114,31
990,067	109,22
990,235	118,1
990,404	109,51
990,573	108,88
990,741	107,87
990,91	110,23
991,079	105,75
991,247	106,92
991,416	105,87
991,584	105,18
991,753	103,87
991,921	104,39
992,09	108,46
992,258	102,22
992,427	101,92
992,595	106,35
992,764	114,18
992,932	112,98
993,1	121,86
993,269	119,4
993,437	133,32
993,605	125,64
993,774	129,51
993,942	130,45
994,11	122,71
994,279	113,98
994,447	113,68
994,615	105,07
994,783	101,08
994,951	90,85
995,12	92,18
995,288	97,97
995,456	102,28
995,624	104
995,792	107,1
995,96	108,32
996,128	111,23
996,296	116,96
996,464	120,62
996,632	119,93
996,8	110,25
996,968	102,13
997,136	106,43
997,304	107,52
997,472	114,47
997,64	109,13
997,808	112,12
997,976	112,28
998,144	114,06
998,311	132,02
998,479	138,23
998,647	137,36
998,815	124,32
998,983	110,04
999,15	116,97
999,318	109,56
999,486	99,03
999,653	94,14
999,821	87,92
999,989	88,99
1000,156	91,03
1000,324	105,2
1000,492	114,27
1000,659	114,62
1000,827	114,46
1000,994	124,78
1001,162	127,74
1001,329	136,92
1001,497	140,13
1001,664	146,21
1001,832	143,39
1001,999	145,15
1002,166	136
1002,334	145,32
1002,501	141,08
1002,669	144,01
1002,836	137,33
1003,003	147,11
1003,171	145,33
1003,338	115,31
1003,505	110,99
1003,672	119,77
1003,84	119,49
1004,007	120,04
1004,174	125,34
1004,341	121,01
1004,508	108,79
1004,675	99,72
1004,843	112,21
1005,01	114,95
1005,177	106,18
1005,344	100,66
1005,511	107,58
1005,678	106,36
1005,845	106,81
1006,012	114,23
1006,179	122,77
1006,346	127,36
1006,513	127,67
1006,68	128,96
1006,847	121,47
1007,013	112,4
1007,18	104,65
1007,347	107,47
1007,514	104,81
1007,681	100,25
1007,848	98,08
1008,014	98,32
1008,181	103,11
1008,348	117,04
1008,515	124,89
1008,681	134,55
1008,848	161,84
1009,015	183,23
1009,181	192,26
1009,348	231,84
1009,515	193,3
1009,681	160,87
1009,848	138,26
1010,014	135,27
1010,181	137,15
1010,347	125,6
1010,514	131,15
1010,68	139,42
1010,847	137,74
1011,013	158,86
1011,18	169,91
1011,346	181,95
1011,513	152,03
1011,679	164,91
1011,845	151,92
1012,012	136,33
1012,178	128,71
1012,344	119,79
1012,511	113,39
1012,677	110,36
1012,843	124,46
1013,009	137,35
1013,175	111,83
1013,342	122,89
1013,508	117,81
1013,674	126,92
1013,84	110,86
1014,006	106,41
1014,172	102,02
1014,338	84,64
1014,505	88,65
1014,671	103,45
1014,837	101,74
1015,003	89,45
1015,169	86,07
1015,335	83,75
1015,501	77,69
1015,666	74,51
1015,832	90,05
1015,998	86,76
1016,164	70,46
1016,33	58,11
1016,496	73,3
1016,662	78,53
1016,828	96,48
1016,993	93,77
1017,159	99,22
1017,325	98,05
1017,491	109,78
1017,656	116,45
1017,822	129,14
1017,988	138,81
1018,153	139,86
1018,319	124,3
1018,485	121,84
1018,65	142,67
1018,816	159,84
1018,981	138,34
1019,147	139,35
1019,313	120,54
1019,478	111,93
1019,644	115,67
1019,809	122,46
1019,975	132,24
1020,14	103,62
1020,305	81,71
1020,471	189,92
1020,636	195,51
1020,802	278,78
1020,967	290,17
1021,132	332,05
1021,298	386,14
1021,463	463,27
1021,628	772,1
1021,793	890,08
1021,959	505,54
1022,124	203,15
1022,289	145,64
1022,454	146,17
1022,619	109,18
1022,785	112,39
1022,95	105,8
1023,115	85,37
1023,28	83,76
1023,445	85,65
1023,61	95,36
1023,775	101,41
1023,94	103,11
1024,105	106,91
1024,27	104,41
1024,435	106,93
1024,6	113,49
1024,765	117,28
1024,93	117,84
1025,095	164,7
1025,26	219,54
1025,425	192,23
1025,589	209,89
1025,754	173,88
1025,919	209,24
1026,084	272,38
1026,249	231,2
1026,413	574,9
1026,578	372,85
1026,743	272,07
1026,908	209,53
1027,072	240,76
1027,237	403,98
1027,402	364,08
1027,566	356,68
1027,731	310,65
1027,895	197,97
1028,06	172,38
1028,225	168,32
1028,389	237,27
1028,554	215,72
1028,718	165,36
1028,883	175,54
1029,047	184,54
1029,211	149,46
1029,376	129,19
1029,54	104,9
1029,705	95,14
1029,869	86,64
1030,033	100,94
1030,198	100,96
1030,362	93,44
1030,526	85,69
1030,691	87,72
1030,855	95,58
1031,019	121,42
1031,183	188,96
1031,348	148,33
1031,512	124,56
1031,676	143,33
1031,84	274,4
1032,004	226,06
1032,168	265,09
1032,332	242,22
1032,496	161,27
1032,661	131,91
1032,825	145,22
1032,989	138,18
1033,153	131,7
1033,317	106,58
1033,481	121,24
1033,644	153,95
1033,808	124,14
1033,972	146,72
1034,136	153,6
1034,3	175,94
1034,464	347,56
1034,628	2095,41
1034,792	-5124,14
1034,955	203,29
1035,119	116,72
1035,283	170,88
1035,447	172,76
1035,61	165,77
1035,774	189,58
1035,938	130,81
1036,102	122,87
1036,265	117,11
1036,429	156,12
1036,592	186,92
1036,756	184,01
1036,92	218,51
1037,083	1035,75
1037,247	468,34
1037,41	348,6
1037,574	-15325,93
1037,737	2815,43
1037,901	457,95
1038,064	284,92
1038,228	257,36
1038,391	173,63
1038,554	147,42
1038,718	124,43
1038,881	147,97
1039,044	149,2
1039,208	161,6
1039,371	172,57
1039,534	165,65
1039,698	121,57
1039,861	125,07
1040,024	152,85
1040,187	286,19
1040,351	254,54
1040,514	182,78
1040,677	128,94
1040,84	157,75
1041,003	138,28
1041,166	146,12
1041,329	149,28
1041,492	140,11
1041,655	106,25
1041,818	103,64
1041,981	87,74
1042,144	97,31
1042,307	94,19
1042,47	103,64
1042,633	130,18
1042,796	170,01
1042,959	143,55
1043,122	138,4
1043,285	137,2
1043,448	178,3
1043,611	191,72
1043,773	129,63
1043,936	108,42
1044,099	79,71
1044,262	77,56
1044,424	67,05
1044,587	92,85
1044,75	87,65
1044,913	68,07
1045,075	64,25
1045,238	105,1
1045,4	119,78
1045,563	154,88
1045,726	198,19
1045,888	297,15
1046,051	278,87
1046,213	-520,72
1046,376	-954,76
1046,538	-35,92
1046,701	-92,98
1046,863	-119,96
1047,026	-447,75
1047,188	-32,61
1047,351	-3,82
1047,513	123,99
1047,675	-169,44
1047,838	-517,89
1048	18,94
1048,162	38,83
1048,325	40,55
1048,487	32,95
1048,649	40,4
1048,811	66,65
1048,974	139,77
1049,136	215,37
