Data from Reflection__17__09-30-40-518.txt Node

Date: Fri Mar 07 09:30:40 COT 2025
User: Unisinu
Spectrometer: SR401173
Trigger mode: 0
Integration Time (sec): 1,000000E-1
Scans to average: 5
Electric dark correction enabled: true
Nonlinearity correction enabled: false
Boxcar width: 4
XAxis mode: Wavelengths
Number of Pixels in Spectrum: 3648
>>>>>Begin Spectral Data<<<<<
344,63	419,75
344,852	127,06
345,073	62,92
345,295	119,81
345,516	160,06
345,738	-353,45
345,959	-192,91
346,18	-2076,92
346,402	1280,37
346,623	757,21
346,844	127,06
347,066	839,16
347,287	369,2
347,508	151,41
347,73	52,17
347,951	31,61
348,172	35,55
348,394	22,78
348,615	17,58
348,836	20,95
349,057	19,95
349,278	13,54
349,5	14,94
349,721	14,01
349,942	16,44
350,163	14,84
350,384	21,41
350,605	23,01
350,827	22,53
351,048	22,34
351,269	22,52
351,49	15,78
351,711	18,23
351,932	15,38
352,153	17,79
352,374	12,93
352,595	12,08
352,816	8,7
353,037	5,77
353,258	7,49
353,479	11,09
353,7	9,06
353,92	9,7
354,141	2,8
354,362	1,51
354,583	-3,99
354,804	-3,27
355,025	-3,04
355,246	-1,23
355,466	-1,69
355,687	5,29
355,908	3,84
356,129	9,26
356,35	10,38
356,57	14,34
356,791	14,65
357,012	13,83
357,232	10,38
357,453	8,16
357,674	3,01
357,894	5,74
358,115	5,4
358,336	6,79
358,556	6,4
358,777	6,41
358,997	10,99
359,218	11,47
359,439	12,01
359,659	15,08
359,88	13,57
360,1	12,37
360,321	12,75
360,541	11,61
360,762	10,6
360,982	8,37
361,203	5,67
361,423	5,64
361,643	4,4
361,864	4,83
362,084	6,15
362,304	4,71
362,525	4,14
362,745	4,03
362,966	4,45
363,186	8,05
363,406	8,85
363,626	8,96
363,847	10,6
364,067	10,82
364,287	11,03
364,507	12,22
364,728	12,5
364,948	12,6
365,168	11,32
365,388	12,02
365,608	11,2
365,828	10,13
366,049	10,01
366,269	9,24
366,489	8,8
366,709	8,72
366,929	7,79
367,149	7,87
367,369	7,72
367,589	8,11
367,809	7,22
368,029	6,92
368,249	7
368,469	7,18
368,689	7,65
368,909	8,11
369,129	7,24
369,349	6,02
369,569	5,85
369,789	7,07
370,009	6
370,228	8,57
370,448	8,98
370,668	9,16
370,888	8,36
371,108	10,14
371,327	10,43
371,547	9,04
371,767	7,42
371,987	6,96
372,206	4,1
372,426	4
372,646	0,53
372,866	0,59
373,085	-1,19
373,305	-1,2
373,525	-0,32
373,744	0,61
373,964	1,21
374,183	3,48
374,403	3,9
374,623	6,45
374,842	7,13
375,062	7,98
375,281	7,7
375,501	7,85
375,72	6,95
375,94	6,93
376,159	5,59
376,379	4,62
376,598	3,74
376,818	3,96
377,037	2,94
377,256	2,94
377,476	2,34
377,695	2,9
377,914	2,23
378,134	1,57
378,353	2,09
378,572	2,46
378,792	2,4
379,011	3,2
379,23	3,32
379,45	2,77
379,669	3,27
379,888	4,5
380,107	5,38
380,327	5,66
380,546	5,83
380,765	4,18
380,984	3,28
381,203	3,07
381,422	4,46
381,641	3,33
381,861	2,82
382,08	2,32
382,299	2,24
382,518	2,03
382,737	2,73
382,956	3,01
383,175	2,89
383,394	2,75
383,613	2,86
383,832	3
384,051	2,89
384,27	2,48
384,489	2,7
384,708	2,52
384,927	2,53
385,145	2,47
385,364	2,4
385,583	1,74
385,802	1,82
386,021	2,09
386,24	2,22
386,458	2,22
386,677	2,19
386,896	2,01
387,115	2,07
387,334	1,99
387,552	2,55
387,771	2,51
387,99	2,39
388,208	2,31
388,427	2,13
388,646	2,08
388,864	2,35
389,083	2,52
389,302	2,67
389,52	2,6
389,739	2,6
389,957	2,61
390,176	2,6
390,394	2,54
390,613	2,97
390,832	2,85
391,05	2,68
391,269	2,41
391,487	2,02
391,705	1,81
391,924	2,1
392,142	2
392,361	2,09
392,579	1,87
392,798	1,81
393,016	1,86
393,234	1,87
393,453	2,24
393,671	2,59
393,889	2,56
394,108	2,73
394,326	2,91
394,544	3,18
394,762	3,28
394,981	3,28
395,199	2,98
395,417	2,76
395,635	2,01
395,854	2,16
396,072	2,11
396,29	1,76
396,508	1,64
396,726	1,6
396,944	1,65
397,162	1,79
397,38	1,64
397,598	1,78
397,817	1,64
398,035	1,57
398,253	1,72
398,471	1,64
398,689	1,71
398,907	1,68
399,125	1,59
399,343	1,65
399,561	1,72
399,778	1,7
399,996	1,72
400,214	1,77
400,432	1,86
400,65	1,67
400,868	1,62
401,086	1,69
401,304	1,7
401,521	1,51
401,739	1,48
401,957	1,53
402,175	1,46
402,392	1,54
402,61	1,59
402,828	1,6
403,046	1,62
403,263	1,55
403,481	1,8
403,699	1,85
403,916	1,76
404,134	1,89
404,352	1,79
404,569	1,95
404,787	1,89
405,004	1,88
405,222	1,91
405,44	1,69
405,657	1,68
405,875	1,76
406,092	1,63
406,31	1,68
406,527	1,71
406,745	1,71
406,962	1,57
407,18	1,54
407,397	1,79
407,614	1,73
407,832	1,71
408,049	1,73
408,267	1,73
408,484	1,63
408,701	1,65
408,919	1,82
409,136	1,86
409,353	1,61
409,57	1,63
409,788	1,74
410,005	1,72
410,222	1,66
410,439	1,67
410,657	1,67
410,874	1,67
411,091	1,67
411,308	1,77
411,525	1,77
411,742	1,67
411,96	1,65
412,177	1,65
412,394	1,63
412,611	1,59
412,828	1,53
413,045	1,52
413,262	1,44
413,479	1,5
413,696	1,47
413,913	1,48
414,13	1,53
414,347	1,53
414,564	1,64
414,781	1,64
414,998	1,65
415,215	1,78
415,432	1,71
415,648	1,81
415,865	1,83
416,082	1,77
416,299	1,8
416,516	1,75
416,733	1,8
416,949	1,75
417,166	1,69
417,383	1,77
417,6	1,66
417,816	1,63
418,033	1,61
418,25	1,57
418,467	1,56
418,683	1,52
418,9	1,58
419,117	1,65
419,333	1,63
419,55	1,7
419,766	1,7
419,983	1,79
420,2	1,87
420,416	1,91
420,633	2,08
420,849	2,13
421,066	2,12
421,282	2,13
421,499	2,12
421,715	2,19
421,932	2,19
422,148	2,18
422,365	2,13
422,581	1,97
422,797	1,94
423,014	1,97
423,23	1,96
423,446	2
423,663	1,93
423,879	1,9
424,095	1,85
424,312	1,92
424,528	2,05
424,744	1,98
424,961	2,07
425,177	2,08
425,393	2,13
425,609	2,22
425,825	2,24
426,042	2,25
426,258	2,18
426,474	2,06
426,69	2,15
426,906	2,03
427,122	2
427,338	1,91
427,554	1,93
427,771	2
427,987	1,93
428,203	2,01
428,419	2,04
428,635	2,03
428,851	2,13
429,067	2,12
429,283	2,14
429,499	2,16
429,714	2,1
429,93	2,18
430,146	2,11
430,362	2,09
430,578	2,1
430,794	2,02
431,01	2,06
431,226	2,09
431,441	2,08
431,657	2,13
431,873	2,13
432,089	2,16
432,305	2,15
432,52	2,12
432,736	2,11
432,952	2,06
433,167	2,08
433,383	1,96
433,599	1,88
433,814	1,86
434,03	1,79
434,246	1,83
434,461	1,89
434,677	1,88
434,893	1,87
435,108	1,81
435,324	1,87
435,539	1,85
435,755	1,89
435,97	1,94
436,186	1,97
436,401	1,88
436,617	1,93
436,832	1,94
437,048	1,92
437,263	1,93
437,478	1,99
437,694	2,03
437,909	2,05
438,125	2,05
438,34	2,04
438,555	2,01
438,771	2,07
438,986	2,18
439,201	2,19
439,417	2,16
439,632	2,19
439,847	2,15
440,062	2,11
440,278	2,2
440,493	2,24
440,708	2,24
440,923	2,14
441,138	2,14
441,353	2,2
441,569	2,17
441,784	2,25
441,999	2,34
442,214	2,33
442,429	2,3
442,644	2,27
442,859	2,33
443,074	2,3
443,289	2,23
443,504	2,22
443,719	2,23
443,934	2,13
444,149	2,07
444,364	2,07
444,579	2,07
444,794	2,09
445,009	2,15
445,224	2,24
445,438	2,2
445,653	2,19
445,868	2,22
446,083	2,27
446,298	2,28
446,513	2,28
446,727	2,33
446,942	2,38
447,157	2,34
447,372	2,42
447,586	2,41
447,801	2,44
448,016	2,47
448,23	2,52
448,445	2,51
448,66	2,47
448,874	2,43
449,089	2,42
449,304	2,45
449,518	2,5
449,733	2,49
449,947	2,46
450,162	2,44
450,376	2,44
450,591	2,48
450,805	2,51
451,02	2,52
451,234	2,42
451,449	2,41
451,663	2,45
451,878	2,46
452,092	2,49
452,307	2,52
452,521	2,49
452,735	2,46
452,95	2,52
453,164	2,58
453,378	2,58
453,593	2,54
453,807	2,57
454,021	2,59
454,236	2,67
454,45	2,68
454,664	2,72
454,878	2,72
455,093	2,74
455,307	2,74
455,521	2,78
455,735	2,75
455,949	2,74
456,163	2,69
456,377	2,68
456,592	2,62
456,806	2,6
457,02	2,56
457,234	2,52
457,448	2,5
457,662	2,58
457,876	2,56
458,09	2,51
458,304	2,53
458,518	2,55
458,732	2,57
458,946	2,6
459,16	2,65
459,374	2,68
459,588	2,66
459,801	2,7
460,015	2,72
460,229	2,71
460,443	2,76
460,657	2,75
460,871	2,73
461,085	2,69
461,298	2,71
461,512	2,69
461,726	2,67
461,94	2,73
462,153	2,77
462,367	2,78
462,581	2,8
462,794	2,82
463,008	2,86
463,222	2,87
463,435	2,86
463,649	2,89
463,863	2,88
464,076	2,85
464,29	2,86
464,503	2,8
464,717	2,78
464,93	2,81
465,144	2,78
465,357	2,82
465,571	2,77
465,784	2,77
465,998	2,78
466,211	2,78
466,425	2,81
466,638	2,85
466,852	2,81
467,065	2,82
467,278	2,81
467,492	2,89
467,705	2,9
467,918	2,92
468,132	2,87
468,345	2,94
468,558	2,92
468,772	2,98
468,985	3
469,198	3,03
469,411	2,98
469,624	2,99
469,838	3,03
470,051	3,08
470,264	3,06
470,477	3,12
470,69	3,1
470,903	3,08
471,117	3,08
471,33	3,09
471,543	3,09
471,756	3,1
471,969	3,09
472,182	3,1
472,395	3,08
472,608	3,04
472,821	3,09
473,034	3,06
473,247	3,07
473,46	3,07
473,673	3,06
473,886	3,08
474,098	3,09
474,311	3,14
474,524	3,2
474,737	3,2
474,95	3,2
475,163	3,22
475,376	3,23
475,588	3,24
475,801	3,24
476,014	3,23
476,227	3,23
476,439	3,23
476,652	3,26
476,865	3,29
477,078	3,27
477,29	3,3
477,503	3,29
477,716	3,33
477,928	3,35
478,141	3,35
478,353	3,36
478,566	3,42
478,779	3,41
478,991	3,42
479,204	3,43
479,416	3,48
479,629	3,45
479,841	3,47
480,054	3,47
480,266	3,47
480,479	3,37
480,691	3,42
480,904	3,42
481,116	3,44
481,328	3,42
481,541	3,49
481,753	3,45
481,965	3,45
482,178	3,45
482,39	3,53
482,602	3,56
482,815	3,59
483,027	3,56
483,239	3,58
483,451	3,5
483,664	3,55
483,876	3,56
484,088	3,6
484,3	3,58
484,513	3,52
484,725	3,51
484,937	3,54
485,149	3,54
485,361	3,63
485,573	3,62
485,785	3,62
485,997	3,62
486,209	3,65
486,421	3,69
486,633	3,7
486,845	3,69
487,057	3,7
487,269	3,69
487,481	3,7
487,693	3,73
487,905	3,76
488,117	3,74
488,329	3,75
488,541	3,76
488,753	3,81
488,965	3,81
489,177	3,79
489,388	3,8
489,6	3,82
489,812	3,8
490,024	3,82
490,236	3,87
490,447	3,9
490,659	3,91
490,871	3,96
491,083	3,97
491,294	4,05
491,506	4,03
491,718	4,07
491,929	4,08
492,141	4,05
492,353	4,07
492,564	4,09
492,776	4,07
492,987	4,09
493,199	4,06
493,41	4,12
493,622	4,13
493,834	4,17
494,045	4,18
494,257	4,18
494,468	4,2
494,679	4,22
494,891	4,26
495,102	4,26
495,314	4,26
495,525	4,3
495,737	4,27
495,948	4,29
496,159	4,29
496,371	4,29
496,582	4,29
496,793	4,3
497,005	4,31
497,216	4,33
497,427	4,29
497,638	4,34
497,85	4,34
498,061	4,37
498,272	4,34
498,483	4,34
498,694	4,37
498,906	4,35
499,117	4,33
499,328	4,35
499,539	4,32
499,75	4,34
499,961	4,36
500,172	4,45
500,383	4,47
500,594	4,5
500,805	4,54
501,016	4,55
501,227	4,53
501,438	4,58
501,649	4,59
501,86	4,58
502,071	4,52
502,282	4,57
502,493	4,56
502,704	4,6
502,915	4,63
503,126	4,7
503,337	4,71
503,547	4,75
503,758	4,82
503,969	4,91
504,18	4,93
504,391	4,99
504,601	5,07
504,812	5,09
505,023	5,09
505,234	5,16
505,444	5,16
505,655	5,15
505,866	5,14
506,076	5,19
506,287	5,15
506,497	5,12
506,708	5,15
506,919	5,21
507,129	5,2
507,34	5,28
507,55	5,3
507,761	5,37
507,971	5,34
508,182	5,41
508,392	5,44
508,603	5,49
508,813	5,51
509,024	5,6
509,234	5,6
509,445	5,67
509,655	5,65
509,865	5,72
510,076	5,73
510,286	5,76
510,497	5,77
510,707	5,8
510,917	5,78
511,127	5,81
511,338	5,82
511,548	5,86
511,758	5,89
511,968	5,94
512,179	5,97
512,389	6,03
512,599	6,07
512,809	6,14
513,019	6,18
513,23	6,28
513,44	6,31
513,65	6,38
513,86	6,38
514,07	6,42
514,28	6,43
514,49	6,44
514,7	6,41
514,91	6,46
515,12	6,43
515,33	6,48
515,54	6,5
515,75	6,59
515,96	6,62
516,17	6,69
516,38	6,75
516,59	6,84
516,8	6,87
517,01	6,98
517,22	7,04
517,429	7,12
517,639	7,15
517,849	7,22
518,059	7,28
518,269	7,35
518,478	7,42
518,688	7,53
518,898	7,56
519,108	7,67
519,317	7,69
519,527	7,77
519,737	7,83
519,946	7,9
520,156	7,94
520,366	8,02
520,575	8
520,785	8,04
520,994	8,02
521,204	8,15
521,414	8,21
521,623	8,3
521,833	8,34
522,042	8,47
522,252	8,51
522,461	8,61
522,671	8,67
522,88	8,76
523,089	8,75
523,299	8,82
523,508	8,86
523,718	8,92
523,927	8,88
524,136	8,87
524,346	8,87
524,555	8,92
524,764	8,95
524,974	9,01
525,183	9,01
525,392	9,06
525,602	9,11
525,811	9,2
526,02	9,29
526,229	9,39
526,438	9,43
526,648	9,5
526,857	9,59
527,066	9,65
527,275	9,69
527,484	9,77
527,693	9,8
527,902	9,88
528,112	9,91
528,321	10,03
528,53	10,06
528,739	10,11
528,948	10,14
529,157	10,18
529,366	10,18
529,575	10,25
529,784	10,25
529,993	10,3
530,201	10,27
530,41	10,29
530,619	10,26
530,828	10,34
531,037	10,38
531,246	10,48
531,455	10,45
531,664	10,52
531,872	10,53
532,081	10,62
532,29	10,65
532,499	10,76
532,707	10,79
532,916	10,82
533,125	10,81
533,334	10,91
533,542	10,89
533,751	10,94
533,96	10,91
534,168	10,95
534,377	10,92
534,585	10,91
534,794	10,91
535,003	10,96
535,211	10,94
535,42	10,99
535,628	10,99
535,837	11,04
536,045	11,05
536,254	11,09
536,462	11,07
536,671	11,13
536,879	11,1
537,088	11,13
537,296	11,12
537,504	11,16
537,713	11,15
537,921	11,15
538,129	11,15
538,338	11,21
538,546	11,15
538,754	11,22
538,963	11,21
539,171	11,28
539,379	11,26
539,587	11,33
539,796	11,35
540,004	11,39
540,212	11,39
540,42	11,48
540,628	11,46
540,837	11,52
541,045	11,48
541,253	11,52
541,461	11,49
541,669	11,52
541,877	11,53
542,085	11,55
542,293	11,52
542,501	11,54
542,709	11,57
542,917	11,61
543,125	11,61
543,333	11,65
543,541	11,67
543,749	11,68
543,957	11,67
544,165	11,72
544,373	11,73
544,581	11,74
544,789	11,71
544,997	11,74
545,204	11,74
545,412	11,75
545,62	11,77
545,828	11,84
546,036	11,82
546,243	11,86
546,451	11,82
546,659	11,87
546,867	11,89
547,074	11,9
547,282	11,9
547,49	11,96
547,697	11,94
547,905	11,96
548,112	11,94
548,32	11,97
548,528	11,99
548,735	12,03
548,943	12,01
549,15	12,06
549,358	12,04
549,565	12,12
549,773	12,13
549,98	12,16
550,188	12,19
550,395	12,2
550,603	12,19
550,81	12,26
551,018	12,22
551,225	12,26
551,432	12,23
551,64	12,28
551,847	12,29
552,054	12,31
552,262	12,32
552,469	12,34
552,676	12,3
552,884	12,34
553,091	12,28
553,298	12,26
553,505	12,25
553,713	12,21
553,92	12,22
554,127	12,25
554,334	12,23
554,541	12,26
554,748	12,23
554,955	12,23
555,163	12,22
555,37	12,22
555,577	12,23
555,784	12,2
555,991	12,16
556,198	12,19
556,405	12,15
556,612	12,2
556,819	12,17
557,026	12,18
557,233	12,16
557,44	12,19
557,647	12,16
557,854	12,17
558,06	12,1
558,267	12,15
558,474	12,09
558,681	12,1
558,888	12,07
559,095	12,03
559,301	11,97
559,508	11,96
559,715	11,91
559,922	11,93
560,129	11,84
560,335	11,84
560,542	11,81
560,749	11,88
560,955	11,88
561,162	11,88
561,369	11,84
561,575	11,87
561,782	11,86
561,988	11,88
562,195	11,85
562,402	11,87
562,608	11,76
562,815	11,74
563,021	11,72
563,228	11,73
563,434	11,64
563,641	11,6
563,847	11,57
564,054	11,56
564,26	11,52
564,467	11,5
564,673	11,49
564,879	11,49
565,086	11,46
565,292	11,5
565,498	11,45
565,705	11,43
565,911	11,37
566,117	11,34
566,324	11,27
566,53	11,23
566,736	11,14
566,942	11,11
567,149	11,02
567,355	11,01
567,561	10,99
567,767	10,98
567,973	10,93
568,179	10,94
568,386	10,88
568,592	10,91
568,798	10,86
569,004	10,88
569,21	10,81
569,416	10,79
569,622	10,78
569,828	10,78
570,034	10,75
570,24	10,78
570,446	10,7
570,652	10,73
570,858	10,7
571,064	10,71
571,27	10,66
571,476	10,61
571,681	10,57
571,887	10,55
572,093	10,46
572,299	10,45
572,505	10,36
572,711	10,34
572,916	10,3
573,122	10,33
573,328	10,31
573,534	10,29
573,739	10,24
573,945	10,25
574,151	10,22
574,357	10,25
574,562	10,23
574,768	10,22
574,973	10,18
575,179	10,15
575,385	10,12
575,59	10,15
575,796	10,11
576,001	10,15
576,207	10,13
576,413	10,1
576,618	10,05
576,824	10
577,029	9,96
577,234	9,98
577,44	9,94
577,645	9,96
577,851	9,92
578,056	9,89
578,262	9,87
578,467	9,89
578,672	9,86
578,878	9,87
579,083	9,87
579,288	9,92
579,494	9,86
579,699	9,87
579,904	9,87
580,109	9,87
580,315	9,85
580,52	9,88
580,725	9,87
580,93	9,86
581,135	9,78
581,341	9,78
581,546	9,73
581,751	9,72
581,956	9,71
582,161	9,7
582,366	9,7
582,571	9,69
582,776	9,68
582,981	9,66
583,186	9,65
583,391	9,67
583,596	9,63
583,801	9,61
584,006	9,57
584,211	9,53
584,416	9,53
584,621	9,52
584,826	9,48
585,031	9,45
585,236	9,41
585,441	9,42
585,645	9,36
585,85	9,34
586,055	9,27
586,26	9,21
586,465	9,09
586,669	9,1
586,874	9,03
587,079	9
587,283	8,95
587,488	8,95
587,693	8,93
587,898	8,97
588,102	8,95
588,307	9,04
588,511	9,08
588,716	9,18
588,921	9,14
589,125	9,13
589,33	9,14
589,534	9,14
589,739	9,12
589,943	9,14
590,148	9,11
590,352	9,08
590,557	9,04
590,761	9,07
590,966	9,15
591,17	9,21
591,374	9,2
591,579	9,23
591,783	9,21
591,988	9,2
592,192	9,17
592,396	9,15
592,601	9,11
592,805	9,09
593,009	9,03
593,213	9,13
593,418	9,12
593,622	9,13
593,826	9,15
594,03	9,26
594,234	9,27
594,439	9,28
594,643	9,24
594,847	9,28
595,051	9,25
595,255	9,25
595,459	9,22
595,663	9,25
595,867	9,18
596,071	9,26
596,275	9,29
596,48	9,34
596,684	9,33
596,888	9,33
597,091	9,3
597,295	9,33
597,499	9,3
597,703	9,32
597,907	9,27
598,111	9,28
598,315	9,25
598,519	9,27
598,723	9,24
598,926	9,28
599,13	9,3
599,334	9,34
599,538	9,32
599,742	9,28
599,945	9,28
600,149	9,38
600,353	9,39
600,557	9,45
600,76	9,45
600,964	9,46
601,168	9,45
601,371	9,49
601,575	9,53
601,778	9,53
601,982	9,43
602,186	9,39
602,389	9,35
602,593	9,35
602,796	9,36
603	9,38
603,203	9,31
603,407	9,31
603,61	9,23
603,814	9,3
604,017	9,26
604,221	9,26
604,424	9,2
604,627	9,16
604,831	9,16
605,034	9,2
605,238	9,18
605,441	9,25
605,644	9,18
605,847	9,28
606,051	9,26
606,254	9,31
606,457	9,32
606,661	9,24
606,864	9,24
607,067	9,25
607,27	9,24
607,473	9,26
607,677	9,15
607,88	9,12
608,083	9,05
608,286	9,06
608,489	9,06
608,692	9,06
608,895	9,03
609,098	8,98
609,301	8,95
609,504	9,02
609,707	9,02
609,91	9,03
610,113	9,02
610,316	8,98
610,519	8,94
610,722	8,94
610,925	8,92
611,128	8,94
611,331	8,87
611,534	8,9
611,736	8,92
611,939	8,9
612,142	8,91
612,345	8,93
612,548	8,91
612,75	8,92
612,953	8,86
613,156	8,86
613,359	8,77
613,561	8,72
613,764	8,75
613,967	8,77
614,169	8,72
614,372	8,69
614,575	8,68
614,777	8,69
614,98	8,68
615,183	8,68
615,385	8,64
615,588	8,63
615,79	8,6
615,993	8,62
616,195	8,59
616,398	8,59
616,6	8,54
616,803	8,58
617,005	8,59
617,208	8,67
617,41	8,62
617,612	8,62
617,815	8,62
618,017	8,66
618,219	8,63
618,422	8,7
618,624	8,62
618,826	8,63
619,029	8,6
619,231	8,61
619,433	8,58
619,635	8,61
619,838	8,53
620,04	8,55
620,242	8,5
620,444	8,59
620,646	8,59
620,849	8,56
621,051	8,56
621,253	8,59
621,455	8,55
621,657	8,62
621,859	8,63
622,061	8,66
622,263	8,61
622,465	8,61
622,667	8,64
622,869	8,62
623,071	8,63
623,273	8,62
623,475	8,57
623,677	8,63
623,879	8,58
624,081	8,54
624,283	8,48
624,485	8,46
624,686	8,44
624,888	8,46
625,09	8,45
625,292	8,53
625,494	8,43
625,695	8,5
625,897	8,53
626,099	8,62
626,301	8,56
626,502	8,58
626,704	8,57
626,906	8,57
627,107	8,57
627,309	8,64
627,511	8,59
627,712	8,57
627,914	8,52
628,116	8,59
628,317	8,57
628,519	8,56
628,72	8,57
628,922	8,57
629,123	8,53
629,325	8,53
629,526	8,53
629,728	8,56
629,929	8,54
630,131	8,55
630,332	8,53
630,533	8,56
630,735	8,53
630,936	8,51
631,137	8,47
631,339	8,52
631,54	8,5
631,741	8,51
631,943	8,52
632,144	8,55
632,345	8,49
632,546	8,49
632,748	8,5
632,949	8,57
633,15	8,51
633,351	8,51
633,552	8,49
633,754	8,5
633,955	8,44
634,156	8,49
634,357	8,44
634,558	8,44
634,759	8,4
634,96	8,43
635,161	8,44
635,362	8,47
635,563	8,42
635,764	8,48
635,965	8,43
636,166	8,47
636,367	8,47
636,568	8,48
636,769	8,43
636,97	8,42
637,171	8,43
637,371	8,46
637,572	8,42
637,773	8,43
637,974	8,4
638,175	8,39
638,376	8,41
638,576	8,41
638,777	8,39
638,978	8,33
639,179	8,29
639,379	8,29
639,58	8,28
639,781	8,27
639,981	8,25
640,182	8,19
640,383	8,16
640,583	8,18
640,784	8,17
640,984	8,15
641,185	8,13
641,385	8,13
641,586	8,14
641,786	8,12
641,987	8,11
642,187	8,12
642,388	8,07
642,588	8,08
642,789	8,06
642,989	8,06
643,19	8,03
643,39	8,04
643,59	8,01
643,791	7,98
643,991	7,92
644,191	7,89
644,392	7,85
644,592	7,87
644,792	7,81
644,993	7,72
645,193	7,65
645,393	7,61
645,593	7,54
645,793	7,57
645,994	7,52
646,194	7,6
646,394	7,53
646,594	7,48
646,794	7,54
646,994	7,48
647,194	7,48
647,395	7,53
647,595	7,51
647,795	7,56
647,995	7,5
648,195	7,53
648,395	7,54
648,595	7,56
648,795	7,59
648,995	7,58
649,194	7,58
649,394	7,55
649,594	7,46
649,794	7,47
649,994	7,42
650,194	7,42
650,394	7,37
650,594	7,33
650,793	7,35
650,993	7,39
651,193	7,41
651,393	7,51
651,592	7,5
651,792	7,54
651,992	7,49
652,192	7,52
652,391	7,53
652,591	7,52
652,791	7,42
652,99	7,36
653,19	7,27
653,389	7,2
653,589	7,12
653,789	7,11
653,988	7,06
654,188	7,01
654,387	6,99
654,587	7,02
654,786	7,02
654,986	7,05
655,185	7,08
655,385	7,14
655,584	7,17
655,783	7,22
655,983	7,31
656,182	7,33
656,382	7,33
656,581	7,41
656,78	7,35
656,979	7,38
657,179	7,39
657,378	7,42
657,577	7,34
657,777	7,33
657,976	7,26
658,175	7,31
658,374	7,27
658,573	7,34
658,773	7,26
658,972	7,27
659,171	7,24
659,37	7,26
659,569	7,16
659,768	7,28
659,967	7,18
660,166	7,18
660,365	7,09
660,564	7,12
660,763	7,07
660,962	7,09
661,161	7,04
661,36	7,1
661,559	7
661,758	7,06
661,957	6,98
662,156	7
662,355	6,96
662,554	6,98
662,753	6,95
662,952	6,96
663,15	6,98
663,349	6,98
663,548	6,97
663,747	7,05
663,946	7,08
664,144	7,02
664,343	6,94
664,542	6,96
664,74	6,95
664,939	6,9
665,138	6,9
665,336	6,84
665,535	6,8
665,734	6,83
665,932	6,93
666,131	7
666,329	6,96
666,528	6,94
666,726	6,93
666,925	6,92
667,124	6,98
667,322	6,89
667,52	6,85
667,719	6,78
667,917	6,78
668,116	6,81
668,314	6,75
668,513	6,77
668,711	6,8
668,909	6,82
669,108	6,9
669,306	6,87
669,504	6,84
669,703	6,81
669,901	6,78
670,099	6,89
670,297	6,91
670,496	6,93
670,694	6,86
670,892	6,86
671,09	6,87
671,288	6,97
671,487	7,01
671,685	7,04
671,883	6,98
672,081	6,96
672,279	6,9
672,477	6,95
672,675	6,96
672,873	7
673,071	6,95
673,269	6,93
673,467	6,87
673,665	6,94
673,863	6,92
674,061	6,93
674,259	6,95
674,457	6,97
674,655	6,97
674,853	7,03
675,051	7,02
675,249	7,09
675,446	7,06
675,644	7,05
675,842	7,05
676,04	7,02
676,238	6,97
676,435	6,92
676,633	6,86
676,831	6,88
677,028	6,86
677,226	6,9
677,424	6,95
677,621	7
677,819	6,98
678,017	7,01
678,214	7,04
678,412	7,1
678,61	7,11
678,807	7,14
679,005	7,06
679,202	7,07
679,4	7,02
679,597	7,04
679,795	7,08
679,992	7,08
680,19	7,06
680,387	7,05
680,584	7,12
680,782	7,16
680,979	7,16
681,177	7,18
681,374	7,18
681,571	7,17
681,769	7,2
681,966	7,24
682,163	7,25
682,361	7,22
682,558	7,26
682,755	7,29
682,952	7,34
683,149	7,42
683,347	7,43
683,544	7,51
683,741	7,47
683,938	7,51
684,135	7,53
684,332	7,54
684,53	7,58
684,727	7,55
684,924	7,51
685,121	7,51
685,318	7,46
685,515	7,6
685,712	7,5
685,909	7,52
686,106	7,47
686,303	7,45
686,5	7,51
686,697	7,54
686,893	7,53
687,09	7,62
687,287	7,62
687,484	7,8
687,681	7,86
687,878	8,02
688,075	8,05
688,271	8,17
688,468	8,29
688,665	8,51
688,862	8,48
689,058	8,56
689,255	8,63
689,452	8,66
689,648	8,7
689,845	8,87
690,042	8,84
690,238	8,91
690,435	8,85
690,632	8,94
690,828	9,01
691,025	9,13
691,221	9,29
691,418	9,35
691,614	9,29
691,811	9,46
692,007	9,52
692,204	9,64
692,4	9,71
692,597	9,78
692,793	9,81
692,99	9,94
693,186	10,04
693,382	10,33
693,579	10,53
693,775	10,66
693,971	10,81
694,168	11,08
694,364	11,24
694,56	11,41
694,757	11,52
694,953	11,64
695,149	11,65
695,345	11,82
695,542	11,97
695,738	12,09
695,934	12,1
696,13	12,31
696,326	12,45
696,522	12,55
696,718	12,74
696,914	12,96
697,111	13,01
697,307	13,19
697,503	13,36
697,699	13,58
697,895	13,71
698,091	13,73
698,287	13,92
698,483	14,08
698,679	14,23
698,874	14,34
699,07	14,45
699,266	14,57
699,462	14,64
699,658	14,75
699,854	14,94
700,05	15,01
700,246	15,06
700,441	15,29
700,637	15,48
700,833	15,77
701,029	15,94
701,224	16,25
701,42	16,45
701,616	16,78
701,811	17,05
702,007	17,31
702,203	17,41
702,398	17,62
702,594	17,72
702,79	17,99
702,985	18,1
703,181	18,28
703,376	18,4
703,572	18,58
703,767	18,85
703,963	19,03
704,158	19,24
704,354	19,6
704,549	19,8
704,745	20,04
704,94	20,29
705,136	20,56
705,331	20,76
705,526	20,89
705,722	21,15
705,917	21,35
706,112	21,39
706,308	21,62
706,503	21,79
706,698	21,91
706,894	22,01
707,089	22,23
707,284	22,45
707,479	22,72
707,675	22,84
707,87	23,11
708,065	23,24
708,26	23,52
708,455	23,71
708,65	23,95
708,845	24,09
709,04	24,34
709,236	24,47
709,431	24,81
709,626	25,04
709,821	25,26
710,016	25,48
710,211	25,8
710,406	25,99
710,601	26,29
710,796	26,5
710,99	26,76
711,185	26,87
711,38	27,04
711,575	27,23
711,77	27,41
711,965	27,61
712,16	27,84
712,355	27,97
712,549	28,09
712,744	28,23
712,939	28,51
713,134	28,65
713,328	28,93
713,523	29,14
713,718	29,23
713,912	29,31
714,107	29,44
714,302	29,58
714,496	29,67
714,691	29,58
714,886	29,65
715,08	29,6
715,275	29,57
715,469	29,48
715,664	29,65
715,858	29,73
716,053	29,81
716,247	29,94
716,442	30,26
716,636	30,37
716,831	30,53
717,025	30,58
717,22	30,92
717,414	30,97
717,608	31,33
717,803	31,55
717,997	31,83
718,191	32,13
718,386	32,76
718,58	33,39
718,774	33,93
718,969	34,4
719,163	34,99
719,357	35,23
719,551	35,61
719,745	36,06
719,94	36,37
720,134	36,66
720,328	36,76
720,522	36,94
720,716	37,18
720,91	37,24
721,104	37,44
721,298	37,5
721,492	37,52
721,687	37,64
721,881	37,78
722,075	37,97
722,269	38,18
722,462	38,21
722,656	38,53
722,85	38,88
723,044	39,24
723,238	39,5
723,432	39,73
723,626	39,85
723,82	40,06
724,014	40,28
724,207	40,64
724,401	40,81
724,595	41,09
724,789	41,27
724,983	41,47
725,176	41,71
725,37	41,93
725,564	42,21
725,757	42,5
725,951	42,6
726,145	42,85
726,338	42,9
726,532	43,1
726,726	43,23
726,919	43,32
727,113	43,73
727,306	44,07
727,5	44,3
727,694	44,86
727,887	45,08
728,081	45,42
728,274	45,6
728,467	46,01
728,661	46,3
728,854	46,47
729,048	46,59
729,241	46,96
729,435	47,13
729,628	47,53
729,821	47,63
730,015	47,97
730,208	48,09
730,401	48,51
730,595	48,74
730,788	49,11
730,981	49,42
731,174	49,6
731,368	49,75
731,561	50,19
731,754	50,58
731,947	50,76
732,14	50,91
732,333	51,04
732,527	51,12
732,72	51,27
732,913	51,48
733,106	51,85
733,299	51,97
733,492	52,06
733,685	52,33
733,878	52,51
734,071	52,87
734,264	53,11
734,457	53,32
734,65	53,58
734,843	53,58
735,036	53,74
735,229	53,91
735,421	54,18
735,614	54,36
735,807	54,4
736	54,49
736,193	54,6
736,386	54,68
736,578	54,89
736,771	55,13
736,964	55,29
737,157	55,32
737,349	55,39
737,542	55,45
737,735	55,63
737,927	55,67
738,12	55,84
738,313	55,91
738,505	55,91
738,698	55,99
738,89	56,08
739,083	56,28
739,276	56,54
739,468	56,66
739,661	56,82
739,853	57,02
740,046	57,21
740,238	57,41
740,431	57,58
740,623	57,77
740,815	57,95
741,008	58,02
741,2	58,15
741,393	58,24
741,585	58,35
741,777	58,47
741,97	58,73
742,162	58,87
742,354	59,07
742,546	59,03
742,739	59,24
742,931	59,34
743,123	59,54
743,315	59,64
743,508	59,77
743,7	59,78
743,892	59,86
744,084	59,87
744,276	60,09
744,468	60,13
744,66	60,28
744,852	60,39
745,044	60,37
745,237	60,33
745,429	60,43
745,621	60,4
745,813	60,63
746,005	60,69
746,197	60,71
746,388	60,68
746,58	60,67
746,772	60,68
746,964	60,84
747,156	60,73
747,348	60,88
747,54	60,78
747,732	60,75
747,923	60,78
748,115	60,94
748,307	60,89
748,499	60,98
748,691	60,97
748,882	61,18
749,074	61,32
749,266	61,41
749,457	61,62
749,649	61,67
749,841	61,8
750,032	62,06
750,224	62,09
750,416	62,22
750,607	62,2
750,799	62,23
750,99	62,3
751,182	62,28
751,373	62,35
751,565	62,32
751,756	62,23
751,948	62,44
752,139	62,33
752,331	62,43
752,522	62,41
752,713	62,38
752,905	62,47
753,096	62,47
753,288	62,53
753,479	62,65
753,67	62,56
753,862	62,77
754,053	62,8
754,244	62,96
754,435	63,12
754,627	63,19
754,818	63,38
755,009	63,39
755,2	63,46
755,391	63,59
755,583	63,58
755,774	63,58
755,965	63,47
756,156	63,47
756,347	63,43
756,538	63,38
756,729	63,35
756,92	63,22
757,111	63,08
757,302	63,02
757,493	63,12
757,684	63,1
757,875	63,09
758,066	63,11
758,257	63,31
758,448	63,61
758,639	64,4
758,83	65,91
759,021	66,41
759,211	65,08
759,402	64,78
759,593	64,42
759,784	63,63
759,975	63,39
760,165	63,06
760,356	62,88
760,547	62,6
760,738	62,49
760,928	62,53
761,119	62,47
761,31	62,3
761,5	62,7
761,691	62,56
761,882	62,81
762,072	62,84
762,263	62,9
762,453	62,72
762,644	62,84
762,834	62,75
763,025	63,03
763,215	63,05
763,406	63,05
763,596	63,13
763,787	63,34
763,977	63,07
764,168	63,64
764,358	63,74
764,548	63,99
764,739	63,96
764,929	64,41
765,119	64,44
765,31	64,48
765,5	64,42
765,69	64,81
765,881	64,66
766,071	64,92
766,261	64,86
766,451	64,9
766,641	64,69
766,832	64,81
767,022	64,78
767,212	64,81
767,402	64,73
767,592	64,87
767,782	64,65
767,972	64,75
768,162	64,85
768,353	64,85
768,543	64,98
768,733	65,12
768,923	65,16
769,113	65,31
769,303	65,25
769,493	65,41
769,682	65,43
769,872	65,47
770,062	65,56
770,252	65,51
770,442	65,52
770,632	65,61
770,822	65,62
771,012	65,61
771,201	65,53
771,391	65,6
771,581	65,42
771,771	65,39
771,96	65,48
772,15	65,56
772,34	65,53
772,529	65,48
772,719	65,63
772,909	65,7
773,098	65,63
773,288	65,87
773,478	65,92
773,667	65,9
773,857	65,9
774,046	66,01
774,236	65,98
774,425	65,85
774,615	65,83
774,804	65,99
774,994	65,9
775,183	65,83
775,373	65,91
775,562	65,89
775,752	66
775,941	65,87
776,13	65,84
776,32	65,96
776,509	65,85
776,698	65,93
776,888	66,02
777,077	66,05
777,266	66,08
777,456	66,07
777,645	66,26
777,834	66,46
778,023	66,49
778,212	66,72
778,402	66,65
778,591	66,59
778,78	66,5
778,969	66,43
779,158	66,34
779,347	66,24
779,536	66,08
779,725	65,97
779,914	66,17
780,103	66,08
780,292	66,15
780,481	66,22
780,67	66,25
780,859	66,2
781,048	66,22
781,237	66,37
781,426	66,36
781,615	66,04
781,804	66,08
781,993	66,21
782,182	66,25
782,37	66,27
782,559	66,29
782,748	66,47
782,937	66,39
783,126	66,45
783,314	66,46
783,503	66,48
783,692	66,26
783,88	66,42
784,069	66,38
784,258	66,58
784,446	66,64
784,635	66,57
784,824	66,52
785,012	66,45
785,201	66,5
785,389	66,71
785,578	66,52
785,766	66,83
785,955	66,58
786,143	66,48
786,332	66,62
786,52	66,81
786,709	66,91
786,897	66,83
787,086	66,65
787,274	66,68
787,462	66,46
787,651	66,52
787,839	66,7
788,027	66,78
788,216	66,61
788,404	66,75
788,592	66,88
788,781	66,98
788,969	66,98
789,157	67,04
789,345	67,06
789,533	67,08
789,722	67,07
789,91	67,25
790,098	67,14
790,286	67,1
790,474	67,11
790,662	67,16
790,85	67,17
791,038	67,2
791,226	67,09
791,414	66,93
791,602	67,11
791,79	66,97
791,978	67,13
792,166	67,26
792,354	67,19
792,542	67,37
792,73	67,4
792,918	67,24
793,106	67,38
793,294	67,2
793,482	67,23
793,669	67,17
793,857	67,13
794,045	67,26
794,233	67,17
794,421	67,27
794,608	67,46
794,796	67,47
794,984	67,4
795,171	67,69
795,359	67,95
795,547	67,83
795,734	67,76
795,922	67,68
796,11	67,57
796,297	67,58
796,485	67,8
796,672	67,91
796,86	67,59
797,047	67,5
797,235	67,46
797,422	67,55
797,61	67,46
797,797	67,52
797,985	67,27
798,172	66,89
798,36	66,92
798,547	67,16
798,734	66,78
798,922	67,01
799,109	66,97
799,296	67,24
799,484	67,15
799,671	67,4
799,858	67,62
800,046	67,56
800,233	67,46
800,42	67,72
800,607	67,62
800,794	67,78
800,982	67,69
801,169	67,7
801,356	67,77
801,543	67,72
801,73	67,66
801,917	67,75
802,104	67,82
802,291	68,06
802,478	67,97
802,665	67,96
802,852	68,22
803,039	68,25
803,226	68,47
803,413	68,59
803,6	68,55
803,787	68,51
803,974	68,39
804,161	68,42
804,348	68,44
804,535	68,46
804,722	68,22
804,908	68,18
805,095	68,25
805,282	68,29
805,469	68,39
805,655	68,51
805,842	68,29
806,029	68,52
806,216	68,55
806,402	68,97
806,589	69,04
806,776	68,82
806,962	68,86
807,149	68,91
807,335	68,74
807,522	68,85
807,709	68,57
807,895	68,49
808,082	68,46
808,268	68,43
808,455	68,59
808,641	68,43
808,828	68,32
809,014	68,56
809,201	68,38
809,387	68,54
809,573	68,47
809,76	68,45
809,946	68,24
810,133	68,29
810,319	68,6
810,505	68,74
810,691	68,63
810,878	69,07
811,064	68,97
811,25	68,94
811,436	68,83
811,623	68,88
811,809	68,74
811,995	68,9
812,181	68,7
812,367	68,66
812,554	68,57
812,74	68,63
812,926	68,66
813,112	68,54
813,298	68,52
813,484	68,79
813,67	68,52
813,856	68,68
814,042	68,56
814,228	68,24
814,414	67,84
814,6	68,41
814,786	68,59
814,972	68,6
815,158	68,18
815,344	68,25
815,529	68,37
815,715	68,84
815,901	69,04
816,087	69,47
816,273	68,79
816,458	68,97
816,644	69,24
816,83	69,6
817,016	69,63
817,201	69,55
817,387	69,4
817,573	69,3
817,758	69,29
817,944	69,35
818,13	68,89
818,315	68,66
818,501	68,5
818,686	68,42
818,872	68,55
819,058	68,49
819,243	68,73
819,429	68,83
819,614	68,72
819,8	69,16
819,985	69,1
820,17	69,21
820,356	69,34
820,541	69,38
820,727	69,44
820,912	69,11
821,097	68,87
821,283	69,29
821,468	68,36
821,653	68,62
821,839	68,75
822,024	69,22
822,209	69,05
822,394	68,87
822,58	68,83
822,765	68,98
822,95	69,37
823,135	69,68
823,32	70,1
823,506	70,52
823,691	70,43
823,876	70,88
824,061	71,13
824,246	71,56
824,431	71,45
824,616	71,04
824,801	70,91
824,986	70,72
825,171	70,29
825,356	70,26
825,541	69,87
825,726	70,03
825,911	69,66
826,096	69,82
826,281	69,94
826,465	70,2
826,65	69,9
826,835	70,15
827,02	70,16
827,205	69,98
827,39	69,6
827,574	69,72
827,759	69,85
827,944	69,43
828,128	69,55
828,313	69,94
828,498	70,03
828,683	69,73
828,867	69,57
829,052	69,86
829,236	69,71
829,421	69,77
829,606	70,37
829,79	70,22
829,975	70,08
830,159	70,36
830,344	70,41
830,528	71,08
830,713	71,05
830,897	71,02
831,082	71,09
831,266	71,12
831,45	71,33
831,635	71,07
831,819	70,81
832,004	71,14
832,188	70,9
832,372	71,04
832,557	71,58
832,741	71,46
832,925	71,07
833,109	71,44
833,294	71,78
833,478	71,62
833,662	71,5
833,846	71,51
834,03	71,26
834,215	71,1
834,399	70,86
834,583	71,16
834,767	71,05
834,951	70,9
835,135	70,66
835,319	70,43
835,503	70,26
835,687	70,37
835,871	70,6
836,055	70,63
836,239	70,4
836,423	70,31
836,607	70,52
836,791	70,79
836,975	71,27
837,159	71,57
837,343	71,64
837,526	71,28
837,71	71,43
837,894	71,57
838,078	71,52
838,262	71,44
838,445	71,7
838,629	71,46
838,813	71,47
838,997	71,37
839,18	71,38
839,364	71,29
839,548	71,36
839,731	71,57
839,915	71,63
840,099	71,63
840,282	71,39
840,466	71,45
840,649	71,64
840,833	71,82
841,016	71,88
841,2	72,04
841,383	72
841,567	72,18
841,75	71,93
841,934	72,26
842,117	72,23
842,301	72,35
842,484	72,24
842,667	72,28
842,851	71,74
843,034	71,37
843,217	70,99
843,401	71,08
843,584	71,21
843,767	71,19
843,951	71,01
844,134	71,07
844,317	71,09
844,5	71,7
844,683	72,23
844,867	72,34
845,05	72,19
845,233	72,06
845,416	72,05
845,599	72,03
845,782	71,99
845,965	72,14
846,148	72,29
846,331	71,95
846,514	71,81
846,697	72,01
846,88	71,85
847,063	72,05
847,246	72,09
847,429	71,95
847,612	71,92
847,795	71,67
847,978	71,71
848,161	72,08
848,344	72,22
848,526	72,48
848,709	72,13
848,892	72,07
849,075	72,45
849,258	72,24
849,44	72,1
849,623	71,99
849,806	72,25
849,988	72,4
850,171	72,4
850,354	72,93
850,536	72,73
850,719	72,7
850,902	73,02
851,084	73,38
851,267	73,51
851,449	73,3
851,632	73,29
851,814	73,35
851,997	72,92
852,179	73,57
852,362	73,07
852,544	73,39
852,727	73,04
852,909	73,37
853,092	72,86
853,274	72,79
853,456	72,91
853,639	72,72
853,821	72,75
854,003	73,48
854,186	73,23
854,368	73,46
854,55	73,31
854,732	73,67
854,915	73,4
855,097	73,59
855,279	73,84
855,461	73,44
855,643	72,86
855,826	72,88
856,008	72,71
856,19	72,68
856,372	72,66
856,554	72,98
856,736	72,97
856,918	72,7
857,1	72,75
857,282	72,93
857,464	73,31
857,646	73,34
857,828	73,27
858,01	73,34
858,192	73,1
858,374	72,91
858,556	73,21
858,738	73,39
858,919	73,58
859,101	73,19
859,283	73,46
859,465	73,86
859,647	73,92
859,828	74,05
860,01	74,23
860,192	74,69
860,374	74,93
860,555	75,15
860,737	75,03
860,919	74,76
861,1	74,74
861,282	74,93
861,464	74,86
861,645	74,56
861,827	74,34
862,008	74,08
862,19	74,05
862,371	74,22
862,553	74,29
862,734	74,05
862,916	73,55
863,097	73,34
863,279	73,21
863,46	73,24
863,642	73,4
863,823	73,21
864,004	73,02
864,186	73,1
864,367	72,84
864,548	73,57
864,73	73,54
864,911	73,8
865,092	73,18
865,274	73,21
865,455	73,3
865,636	73,29
865,817	73,08
865,998	73,09
866,18	72,91
866,361	73,2
866,542	72,89
866,723	73,38
866,904	73,55
867,085	73,48
867,266	73,51
867,447	74,04
867,628	74,01
867,809	73,79
867,99	74,11
868,171	74,82
868,352	74,96
868,533	74,64
868,714	74,78
868,895	74,6
869,076	74,37
869,257	74,54
869,438	74,53
869,619	74,57
869,799	74,06
869,98	73,88
870,161	73,82
870,342	73,6
870,523	74,2
870,703	74,43
870,884	74,47
871,065	74,59
871,245	74,36
871,426	74,8
871,607	74,81
871,787	74,95
871,968	75,18
872,149	75,17
872,329	74,73
872,51	74,98
872,69	75,2
872,871	75,31
873,051	75,13
873,232	75
873,412	75,04
873,593	74,97
873,773	74,92
873,954	75,2
874,134	74,76
874,314	74,61
874,495	74,95
874,675	74,94
874,856	74,63
875,036	74,39
875,216	74,74
875,396	74,42
875,577	74,17
875,757	74,6
875,937	74,75
876,117	74,95
876,298	74,96
876,478	75,52
876,658	75,93
876,838	75,63
877,018	76,27
877,198	76,87
877,379	76,99
877,559	76,53
877,739	75,96
877,919	75,57
878,099	75,5
878,279	75
878,459	75,17
878,639	74,73
878,819	74,7
878,999	74,38
879,179	74,85
879,359	75,14
879,538	75,6
879,718	75,96
879,898	76,75
880,078	76,36
880,258	76,04
880,438	76
880,617	76,51
880,797	76,2
880,977	75,77
881,157	76,12
881,336	75,72
881,516	75,15
881,696	75,51
881,876	76,19
882,055	75,62
882,235	75,38
882,414	75,18
882,594	75,47
882,774	75,45
882,953	75,84
883,133	75,86
883,312	76,17
883,492	76,02
883,671	75,92
883,851	75,54
884,03	76,17
884,21	75,79
884,389	75,93
884,569	76,06
884,748	76,44
884,927	76,04
885,107	75,63
885,286	75,94
885,465	76,26
885,645	76,1
885,824	76,14
886,003	75,76
886,182	75,72
886,362	75,33
886,541	75,69
886,72	75,95
886,899	76,51
887,078	76,96
887,258	77,07
887,437	77,46
887,616	77,86
887,795	77,67
887,974	78,56
888,153	78,21
888,332	78,24
888,511	77,98
888,69	77,42
888,869	77,33
889,048	77,51
889,227	77,46
889,406	77,51
889,585	77,3
889,764	77,56
889,943	77,15
890,122	76,83
890,301	76,93
890,479	76,91
890,658	77,26
890,837	76,79
891,016	77,3
891,195	77,23
891,373	77,19
891,552	78,04
891,731	78,57
891,909	78,64
892,088	78,87
892,267	78,6
892,446	78,49
892,624	77,76
892,803	77,87
892,981	77,35
893,16	77,62
893,338	77,38
893,517	77,55
893,696	77,85
893,874	77,45
894,053	77,97
894,231	78,11
894,41	78,57
894,588	79,06
894,766	78,69
894,945	79,88
895,123	79,87
895,302	80,84
895,48	81,56
895,658	81,95
895,837	82,53
896,015	81,38
896,193	82,03
896,371	81,54
896,55	80,77
896,728	81,9
896,906	82,31
897,084	82,67
897,262	81,5
897,441	81,36
897,619	82,76
897,797	82,96
897,975	83,92
898,153	82,87
898,331	82,82
898,509	84,3
898,687	83,19
898,865	86,03
899,043	85,4
899,221	86,11
899,399	88,39
899,577	87,57
899,755	89,41
899,933	89,89
900,111	85,57
900,289	86,42
900,467	86
900,645	87,73
900,822	85,97
901	81,9
901,178	81,93
901,356	80,42
901,534	78,2
901,711	78,22
901,889	77,24
902,067	76,42
902,244	76,61
902,422	77,94
902,6	78,26
902,777	77,96
902,955	78,97
903,133	80,82
903,31	80,5
903,488	81,78
903,665	82,63
903,843	82,29
904,02	80,9
904,198	81,68
904,375	83,33
904,553	83,47
904,73	84,8
904,908	87,01
905,085	87,3
905,263	87,12
905,44	86,93
905,617	89,04
905,795	90,18
905,972	89,06
906,149	90,21
906,327	88,3
906,504	88,64
906,681	86,72
906,858	87,69
907,036	86,45
907,213	87,79
907,39	86,81
907,567	88,02
907,744	85,79
907,921	85,85
908,099	85,58
908,276	86,84
908,453	86,93
908,63	89,62
908,807	85,58
908,984	84,57
909,161	83,36
909,338	83,46
909,515	83,52
909,692	85,03
909,869	85,67
910,046	84,05
910,223	82,53
910,4	83,96
910,576	84,76
910,753	85,35
910,93	85,12
911,107	84,51
911,284	84,33
911,461	83,09
911,637	85,01
911,814	84,6
911,991	83,03
912,168	86,04
912,344	85,63
912,521	86,89
912,698	87,99
912,874	88
913,051	88,82
913,227	90,44
913,404	90,34
913,581	92,65
913,757	91,15
913,934	93,27
914,11	92,35
914,287	90,72
914,463	89,5
914,64	90,05
914,816	87,37
914,993	88,78
915,169	89,31
915,345	88,92
915,522	88,03
915,698	89,31
915,875	89,62
916,051	90,64
916,227	91,82
916,403	93,3
916,58	92,97
916,756	92,36
916,932	90,04
917,108	89,52
917,285	89,01
917,461	89,2
917,637	85,48
917,813	85,66
917,989	85,53
918,165	84,85
918,342	85,87
918,518	87,54
918,694	87,24
918,87	87,18
919,046	86,61
919,222	89,48
919,398	88,35
919,574	85,52
919,75	87,45
919,926	85,73
920,102	85,01
920,278	85,35
920,453	85,78
920,629	85,09
920,805	84,53
920,981	84,15
921,157	86,62
921,333	86,5
921,508	88,4
921,684	89,84
921,86	90,76
922,036	89,64
922,211	90,39
922,387	89,9
922,563	91,82
922,739	92,27
922,914	91,67
923,09	90,48
923,265	89,09
923,441	87,66
923,617	89,08
923,792	91,96
923,968	91,71
924,143	89,05
924,319	89,43
924,494	88,14
924,67	86,73
924,845	87,56
925,021	86,26
925,196	84,29
925,371	84,54
925,547	86,28
925,722	88,57
925,897	91,11
926,073	97,57
926,248	98,24
926,423	101,99
926,599	105,45
926,774	112,77
926,949	113,76
927,124	111,96
927,3	115,55
927,475	116,67
927,65	115,72
927,825	118,93
928	118
928,175	132,51
928,351	142,77
928,526	135
928,701	143,88
928,876	145,77
929,051	143,21
929,226	148,69
929,401	162,66
929,576	186,58
929,751	190,11
929,926	174,55
930,101	179,25
930,276	200,67
930,45	189,87
930,625	174,33
930,8	141,94
930,975	169,82
931,15	175,84
931,325	138,09
931,499	187,61
931,674	215,09
931,849	239,67
932,024	385,58
932,198	578,21
932,373	1004,31
932,548	356,19
932,722	296,16
932,897	367,18
933,072	278,54
933,246	333,75
933,421	282,63
933,595	233,54
933,77	255,85
933,945	230,57
934,119	342,77
934,294	330,14
934,468	373,68
934,643	216,45
934,817	223,49
934,991	179,4
935,166	156,27
935,34	192,05
935,515	212,12
935,689	200,43
935,863	189,67
936,038	165,9
936,212	323,31
936,386	243,57
936,561	375,27
936,735	345,28
936,909	223,73
937,083	180,94
937,257	155,77
937,432	169,51
937,606	171,84
937,78	175,36
937,954	163,19
938,128	148,08
938,302	154,82
938,476	147,36
938,65	169,79
938,825	224,29
938,999	208,53
939,173	181,98
939,347	150,79
939,521	138,38
939,694	161,89
939,868	140,59
940,042	132,13
940,216	114,87
940,39	110,33
940,564	134,2
940,738	153,22
940,912	168,85
941,086	309,04
941,259	203,05
941,433	352,4
941,607	373,88
941,781	441,69
941,954	364,89
942,128	207,92
942,302	198,43
942,475	201,51
942,649	194,83
942,823	204,32
942,996	257,48
943,17	296,52
943,344	539,09
943,517	533,78
943,691	460,28
943,864	564,97
944,038	506,96
944,211	229,59
944,385	400,49
944,558	246,01
944,732	164,8
944,905	106,16
945,078	90,69
945,252	103,35
945,425	139,04
945,599	147,75
945,772	212,2
945,945	210,42
946,118	165,35
946,292	209,83
946,465	381,03
946,638	329,72
946,812	316,31
946,985	380,14
947,158	329,31
947,331	276,83
947,504	192,64
947,677	189,59
947,851	205,89
948,024	175,48
948,197	225,36
948,37	221,82
948,543	157,64
948,716	126,55
948,889	141,69
949,062	183,34
949,235	203,76
949,408	250,12
949,581	277,08
949,754	267,86
949,927	294,45
950,1	332,53
950,272	1182,19
950,445	-850,63
950,618	1338,95
950,791	389,95
950,964	196,56
951,137	263,74
951,309	182,29
951,482	165,47
951,655	156,85
951,828	125,97
952	112,31
952,173	118,55
952,346	204,58
952,518	428,15
952,691	336,79
952,863	516,25
953,036	646,59
953,209	635,17
953,381	-886,33
953,554	-566,93
953,726	2852,52
953,899	488,72
954,071	317,94
954,244	224,3
954,416	328,98
954,589	307,12
954,761	234
954,933	211,92
955,106	177,67
955,278	191,34
955,451	208,49
955,623	191,09
955,795	162,45
955,967	143,62
956,14	133,59
956,312	153,2
956,484	129,84
956,656	130,6
956,829	220,57
957,001	190,18
957,173	218,63
957,345	236,7
957,517	239,5
957,689	271,17
957,861	219,17
958,034	242,48
958,206	187,14
958,378	130,4
958,55	148,6
958,722	141,74
958,894	153,62
959,066	151,02
959,238	177,23
959,41	194,47
959,581	166,63
959,753	200,28
959,925	186,33
960,097	167,93
960,269	156,2
960,441	146,1
960,613	163,5
960,784	114,63
960,956	107,32
961,128	109,81
961,3	109,65
961,471	125
961,643	121,26
961,815	144,83
961,986	140,61
962,158	141,69
962,33	148,45
962,501	150,57
962,673	162,74
962,845	169,11
963,016	141,63
963,188	131,85
963,359	117,46
963,531	132,83
963,702	130,45
963,874	156,35
964,045	180,17
964,217	180,29
964,388	139,34
964,559	132,67
964,731	142,37
964,902	139,43
965,073	107,41
965,245	111,25
965,416	94,48
965,587	88,3
965,759	87,4
965,93	100,36
966,101	105,54
966,272	108,23
966,444	112,4
966,615	120,66
966,786	114,82
966,957	117,08
967,128	121,34
967,299	128,22
967,47	116,88
967,641	113,44
967,813	107,26
967,984	107,52
968,155	105,92
968,326	106,66
968,497	114,57
968,668	108,76
968,839	106,89
969,009	107,82
969,18	108,55
969,351	112,31
969,522	103,56
969,693	98,59
969,864	96,99
970,035	97,5
970,206	105,13
970,376	100,91
970,547	106,92
970,718	105,9
970,889	101,97
971,059	108,55
971,23	110,86
971,401	115,67
971,571	115,21
971,742	101,17
971,913	109,39
972,083	105,57
972,254	105,96
972,424	105,52
972,595	110,68
972,766	113,71
972,936	109,34
973,107	117,07
973,277	133,88
973,448	119,78
973,618	116,05
973,788	112,82
973,959	123,06
974,129	131,4
974,3	145,83
974,47	145,8
974,64	130,51
974,811	131,66
974,981	140,63
975,151	151,1
975,322	152,87
975,492	150,02
975,662	144,24
975,832	129,84
976,002	137,57
976,173	131,46
976,343	125,49
976,513	121,09
976,683	106,94
976,853	113,02
977,023	124,6
977,193	114,31
977,363	108,01
977,533	102,66
977,704	113,2
977,874	117,99
978,044	111,84
978,213	122,82
978,383	113,38
978,553	100,83
978,723	103,42
978,893	116,23
979,063	116,96
979,233	105,79
979,403	107,4
979,573	106,77
979,742	107,71
979,912	111,63
980,082	116,28
980,252	115,63
980,421	112,31
980,591	117,97
980,761	124,56
980,931	112,8
981,1	119,78
981,27	111,5
981,439	108,78
981,609	104,62
981,779	98,73
981,948	101,25
982,118	92,51
982,287	100,4
982,457	105,07
982,626	99,37
982,796	101,01
982,965	102,3
983,135	97,63
983,304	102,1
983,474	97,6
983,643	100,74
983,812	86,24
983,982	84,44
984,151	84,36
984,32	88,92
984,49	82,68
984,659	88,3
984,828	94,43
984,998	102,63
985,167	98,6
985,336	113,01
985,505	117,41
985,674	135,68
985,844	132,57
986,013	142,52
986,182	133,82
986,351	115,12
986,52	105,59
986,689	107,14
986,858	104,69
987,027	108,27
987,196	101,22
987,365	94,74
987,534	92,48
987,703	96,61
987,872	101,86
988,041	102,61
988,21	102,09
988,379	99,27
988,548	102,55
988,717	101,45
988,885	115,51
989,054	120,66
989,223	121,34
989,392	114,78
989,561	113,38
989,729	110,93
989,898	112,01
990,067	103,2
990,235	105,28
990,404	95,34
990,573	95,91
990,741	96,96
990,91	98,6
991,079	98,98
991,247	102,58
991,416	105,23
991,584	110,36
991,753	108,56
991,921	104,53
992,09	106,85
992,258	99,1
992,427	100,35
992,595	101,91
992,764	101,47
992,932	101,21
993,1	105,29
993,269	110,03
993,437	125,35
993,605	115,46
993,774	115,17
993,942	116,78
994,11	120,32
994,279	129,28
994,447	124,27
994,615	118,98
994,783	115,08
994,951	112,92
995,12	117,68
995,288	120,67
995,456	123,1
995,624	118,86
995,792	110,47
995,96	107,38
996,128	106,16
996,296	108,75
996,464	104,78
996,632	97,7
996,8	93,39
996,968	86,76
997,136	90,35
997,304	95,75
997,472	104,4
997,64	106,22
997,808	107,5
997,976	103,11
998,144	112
998,311	132,5
998,479	130,4
998,647	127,66
998,815	115,49
998,983	108,97
999,15	105,36
999,318	98,1
999,486	103,85
999,653	102,97
999,821	96,5
999,989	94,42
1000,156	93,38
1000,324	93,8
1000,492	96,6
1000,659	104,61
1000,827	115,88
1000,994	112,7
1001,162	112,44
1001,329	116,61
1001,497	133,55
1001,664	153,16
1001,832	158
1001,999	180,23
1002,166	170,17
1002,334	155,57
1002,501	166,53
1002,669	167,83
1002,836	166,89
1003,003	174,75
1003,171	151,68
1003,338	142,09
1003,505	122,86
1003,672	120,21
1003,84	132,93
1004,007	126,38
1004,174	135,91
1004,341	139,96
1004,508	125,58
1004,675	121,11
1004,843	126,61
1005,01	127,16
1005,177	123,04
1005,344	117,49
1005,511	124,17
1005,678	123,31
1005,845	117,89
1006,012	121,02
1006,179	132,55
1006,346	132,77
1006,513	130,06
1006,68	132,3
1006,847	126,18
1007,013	124,29
1007,18	117,45
1007,347	117,75
1007,514	115,83
1007,681	114,28
1007,848	113,31
1008,014	119,83
1008,181	137,4
1008,348	160,99
1008,515	145,26
1008,681	154,2
1008,848	181,95
1009,015	187,53
1009,181	200,35
1009,348	214,48
1009,515	192,23
1009,681	157,36
1009,848	128,79
1010,014	129,7
1010,181	125,44
1010,347	113,59
1010,514	126,6
1010,68	119,2
1010,847	122,95
1011,013	134,23
1011,18	149,34
1011,346	179,44
1011,513	151,2
1011,679	164,31
1011,845	157,94
1012,012	145,4
1012,178	163,87
1012,344	173,65
1012,511	144,18
1012,677	136,02
1012,843	140,06
1013,009	174,84
1013,175	149,86
1013,342	161,19
1013,508	152,11
1013,674	145,95
1013,84	127,37
1014,006	114,81
1014,172	121,4
1014,338	114,43
1014,505	113,74
1014,671	133,43
1014,837	132,39
1015,003	132,45
1015,169	136,84
1015,335	134,62
1015,501	149,25
1015,666	145,9
1015,832	139,87
1015,998	139,52
1016,164	147,45
1016,33	150,99
1016,496	154,66
1016,662	146,68
1016,828	163,1
1016,993	161,38
1017,159	160,45
1017,325	164,29
1017,491	155,9
1017,656	135,94
1017,822	133,17
1017,988	155,41
1018,153	156,38
1018,319	142,14
1018,485	139
1018,65	161,05
1018,816	188,98
1018,981	178,55
1019,147	195,42
1019,313	182,81
1019,478	151,4
1019,644	150,86
1019,809	163,28
1019,975	160,3
1020,14	148,35
1020,305	125,03
1020,471	225,38
1020,636	229,08
1020,802	302,01
1020,967	340
1021,132	368
1021,298	457,86
1021,463	612,57
1021,628	857,71
1021,793	945,55
1021,959	691,6
1022,124	263,22
1022,289	197,07
1022,454	174,03
1022,619	166,16
1022,785	141,67
1022,95	143,63
1023,115	124,88
1023,28	113,29
1023,445	109,26
1023,61	116,77
1023,775	125,18
1023,94	139,3
1024,105	134,49
1024,27	132,63
1024,435	124,58
1024,6	123,19
1024,765	156,16
1024,93	137,24
1025,095	193,2
1025,26	230,81
1025,425	219,66
1025,589	239,01
1025,754	235,84
1025,919	286,93
1026,084	361,77
1026,249	290,95
1026,413	712,21
1026,578	485,92
1026,743	425,81
1026,908	319,27
1027,072	346,12
1027,237	433,44
1027,402	390,09
1027,566	457,45
1027,731	388,26
1027,895	269,64
1028,06	239,35
1028,225	244,38
1028,389	351,12
1028,554	354,43
1028,718	365,5
1028,883	363,54
1029,047	332,52
1029,211	299,92
1029,376	258,51
1029,54	204,51
1029,705	186,53
1029,869	168,5
1030,033	174,24
1030,198	152,53
1030,362	137,33
1030,526	123,79
1030,691	127,3
1030,855	135,35
1031,019	178,9
1031,183	218,04
1031,348	176,92
1031,512	161,09
1031,676	195,7
1031,84	367,22
1032,004	324,72
1032,168	413,12
1032,332	359,09
1032,496	217,85
1032,661	192,22
1032,825	196,38
1032,989	203,41
1033,153	171,15
1033,317	143,67
1033,481	159,48
1033,644	180,09
1033,808	160,7
1033,972	234,34
1034,136	232,67
1034,3	277,58
1034,464	507,33
1034,628	3575,69
1034,792	-8701,15
1034,955	416,82
1035,119	235,15
1035,283	253,82
1035,447	222,1
1035,61	229,46
1035,774	271,99
1035,938	190,87
1036,102	176,52
1036,265	169,72
1036,429	210,46
1036,592	267,7
1036,756	318,17
1036,92	359,97
1037,083	1889,02
1037,247	787,51
1037,41	592,44
1037,574	-28203,7
1037,737	4539,89
1037,901	564,87
1038,064	264,95
1038,228	221,02
1038,391	148,97
1038,554	134,49
1038,718	95,55
1038,881	104,38
1039,044	105,36
1039,208	114,95
1039,371	153,79
1039,534	196,15
1039,698	164,45
1039,861	172,26
1040,024	245,76
1040,187	589,11
1040,351	652,87
1040,514	375,36
1040,677	302,21
1040,84	319,4
1041,003	212,73
1041,166	182,8
1041,329	187,83
1041,492	146,76
1041,655	100,98
1041,818	95,13
1041,981	85,96
1042,144	94,57
1042,307	81,1
1042,47	84,44
1042,633	114,45
1042,796	163,52
1042,959	162,26
1043,122	164,84
1043,285	180,23
1043,448	185,26
1043,611	242,94
1043,773	260,15
1043,936	225,9
1044,099	209,89
1044,262	171,53
1044,424	139,53
1044,587	171,23
1044,75	178,36
1044,913	185,15
1045,075	168,14
1045,238	211,72
1045,4	253,75
1045,563	349,62
1045,726	402,29
1045,888	593,82
1046,051	771,89
1046,213	-1389,41
1046,376	-2295,39
1046,538	-229,81
1046,701	-588,97
1046,863	-578,97
1047,026	-1515,92
1047,188	-284,16
1047,351	-381,24
1047,513	-809,34
1047,675	768,76
1047,838	4280,49
1048	441,98
1048,162	317,99
1048,325	415,93
1048,487	525,56
1048,649	330,03
1048,811	241,79
1048,974	363,04
1049,136	562,62
