Data from Reflection__19__09-30-53-785.txt Node

Date: Fri Mar 07 09:30:53 COT 2025
User: Unisinu
Spectrometer: SR401173
Trigger mode: 0
Integration Time (sec): 1,000000E-1
Scans to average: 5
Electric dark correction enabled: true
Nonlinearity correction enabled: false
Boxcar width: 4
XAxis mode: Wavelengths
Number of Pixels in Spectrum: 3648
>>>>>Begin Spectral Data<<<<<
344,63	-211,11
344,852	-268,32
345,073	42,33
345,295	135,46
345,516	180,79
345,738	-1858,62
345,959	-184,65
346,18	-1253,85
346,402	1834,58
346,623	-624,04
346,844	-268,32
347,066	725,17
347,287	303,75
347,508	148,93
347,73	49,61
347,951	21,77
348,172	24,06
348,394	23,18
348,615	17,1
348,836	13,03
349,057	8,52
349,278	9,51
349,5	5,49
349,721	8,38
349,942	14,52
350,163	12,86
350,384	13,47
350,605	13,62
350,827	14,95
351,048	14,29
351,269	8,82
351,49	4,92
351,711	2,1
351,932	-2,19
352,153	0,92
352,374	-0,26
352,595	-0,99
352,816	-2,6
353,037	-1,27
353,258	2,44
353,479	5,71
353,7	4,76
353,92	4,5
354,141	-1,56
354,362	-5,4
354,583	-9,21
354,804	-9,88
355,025	-8,78
355,246	-9,96
355,466	-7,99
355,687	-2,65
355,908	-4,15
356,129	3,03
356,35	1,96
356,57	6,51
356,791	8,88
357,012	4,95
357,232	4,28
357,453	3,26
357,674	1,42
357,894	2,35
358,115	-0,83
358,336	2,03
358,556	1,64
358,777	0,39
358,997	5,72
359,218	9,13
359,439	10,25
359,659	10,82
359,88	10,75
360,1	9,67
360,321	11,08
360,541	10,46
360,762	9,64
360,982	8,47
361,203	4,42
361,423	3,51
361,643	3,17
361,864	3,68
362,084	5,71
362,304	4,1
362,525	3,57
362,745	4,26
362,966	3,59
363,186	7,18
363,406	6,29
363,626	7,13
363,847	7,6
364,067	6,96
364,287	7,27
364,507	7,26
364,728	7,54
364,948	7,16
365,168	6,29
365,388	6,77
365,608	5,83
365,828	6,88
366,049	7,33
366,269	7,32
366,489	6,94
366,709	7,12
366,929	7,5
367,149	6,84
367,369	7,81
367,589	7,67
367,809	6,63
368,029	6,69
368,249	5,9
368,469	5,27
368,689	4,84
368,909	5,46
369,129	4,95
369,349	3,95
369,569	3,25
369,789	3,22
370,009	2,26
370,228	3,03
370,448	3,78
370,668	3,66
370,888	2,29
371,108	3,07
371,327	2,53
371,547	3,45
371,767	2,92
371,987	2,39
372,206	0,94
372,426	1,63
372,646	0,76
372,866	1,03
373,085	-0,12
373,305	0,72
373,525	1,1
373,744	1,92
373,964	2
374,183	3,47
374,403	3,94
374,623	4,43
374,842	4,5
375,062	4,48
375,281	3,36
375,501	3,05
375,72	2,94
375,94	3,2
376,159	2,96
376,379	2,16
376,598	1,84
376,818	2,07
377,037	1,66
377,256	2,11
377,476	2,55
377,695	2,86
377,914	3,14
378,134	2,27
378,353	2,58
378,572	2,71
378,792	2,56
379,011	3,19
379,23	3,13
379,45	2,36
379,669	2,38
379,888	1,93
380,107	2,54
380,327	2,21
380,546	2,52
380,765	2,2
380,984	2,26
381,203	2
381,422	2,29
381,641	1,62
381,861	2,07
382,08	1,71
382,299	1,84
382,518	1,57
382,737	1,7
382,956	1,25
383,175	1,33
383,394	1,42
383,613	1,45
383,832	1,8
384,051	2,11
384,27	2,18
384,489	2,35
384,708	2,32
384,927	2,42
385,145	2,47
385,364	2,03
385,583	1,87
385,802	1,64
386,021	2,17
386,24	2,23
386,458	2,28
386,677	1,97
386,896	1,98
387,115	1,86
387,334	1,84
387,552	1,95
387,771	1,8
387,99	1,48
388,208	1,37
388,427	1,2
388,646	1,5
388,864	1,61
389,083	1,72
389,302	2,04
389,52	1,9
389,739	1,81
389,957	1,66
390,176	1,65
390,394	1,91
390,613	1,74
390,832	2,04
391,05	2,22
391,269	2,09
391,487	2,25
391,705	2,47
391,924	2,88
392,142	2,61
392,361	2,17
392,579	2,1
392,798	1,78
393,016	1,7
393,234	1,7
393,453	1,91
393,671	1,89
393,889	1,8
394,108	2,16
394,326	2,18
394,544	2,56
394,762	2,86
394,981	2,78
395,199	2,33
395,417	2,03
395,635	1,96
395,854	1,85
396,072	1,76
396,29	1,48
396,508	1,41
396,726	1,29
396,944	1,33
397,162	1,57
397,38	1,52
397,598	1,5
397,817	1,64
398,035	1,53
398,253	1,8
398,471	1,64
398,689	1,56
398,907	1,63
399,125	1,55
399,343	1,6
399,561	1,69
399,778	1,58
399,996	1,6
400,214	1,6
400,432	1,75
400,65	1,65
400,868	1,55
401,086	1,58
401,304	1,61
401,521	1,51
401,739	1,47
401,957	1,53
402,175	1,42
402,392	1,3
402,61	1,5
402,828	1,47
403,046	1,53
403,263	1,38
403,481	1,42
403,699	1,46
403,916	1,34
404,134	1,45
404,352	1,44
404,569	1,43
404,787	1,47
405,004	1,41
405,222	1,56
405,44	1,57
405,657	1,51
405,875	1,62
406,092	1,5
406,31	1,53
406,527	1,54
406,745	1,51
406,962	1,48
407,18	1,38
407,397	1,44
407,614	1,4
407,832	1,4
408,049	1,39
408,267	1,43
408,484	1,4
408,701	1,49
408,919	1,43
409,136	1,48
409,353	1,37
409,57	1,44
409,788	1,57
410,005	1,67
410,222	1,52
410,439	1,56
410,657	1,53
410,874	1,54
411,091	1,51
411,308	1,55
411,525	1,53
411,742	1,4
411,96	1,33
412,177	1,33
412,394	1,29
412,611	1,22
412,828	1,37
413,045	1,39
413,262	1,34
413,479	1,3
413,696	1,24
413,913	1,2
414,13	1,29
414,347	1,28
414,564	1,31
414,781	1,17
414,998	1,13
415,215	1,15
415,432	1,16
415,648	1,2
415,865	1,32
416,082	1,32
416,299	1,31
416,516	1,29
416,733	1,36
416,949	1,35
417,166	1,3
417,383	1,38
417,6	1,43
417,816	1,42
418,033	1,41
418,25	1,45
418,467	1,51
418,683	1,41
418,9	1,53
419,117	1,65
419,333	1,59
419,55	1,53
419,766	1,56
419,983	1,65
420,2	1,79
420,416	1,75
420,633	1,98
420,849	1,94
421,066	1,89
421,282	1,86
421,499	1,95
421,715	1,9
421,932	1,86
422,148	1,74
422,365	1,71
422,581	1,58
422,797	1,6
423,014	1,56
423,23	1,68
423,446	1,59
423,663	1,59
423,879	1,51
424,095	1,47
424,312	1,53
424,528	1,56
424,744	1,53
424,961	1,71
425,177	1,65
425,393	1,79
425,609	1,82
425,825	1,83
426,042	1,93
426,258	1,92
426,474	1,78
426,69	1,78
426,906	1,61
427,122	1,63
427,338	1,56
427,554	1,54
427,771	1,62
427,987	1,56
428,203	1,59
428,419	1,73
428,635	1,78
428,851	1,86
429,067	1,86
429,283	1,87
429,499	1,9
429,714	1,87
429,93	1,95
430,146	1,85
430,362	1,82
430,578	1,79
430,794	1,71
431,01	1,72
431,226	1,76
431,441	1,75
431,657	1,83
431,873	1,79
432,089	1,83
432,305	1,87
432,52	1,83
432,736	1,88
432,952	1,84
433,167	1,72
433,383	1,73
433,599	1,57
433,814	1,44
434,03	1,4
434,246	1,31
434,461	1,38
434,677	1,4
434,893	1,36
435,108	1,34
435,324	1,23
435,539	1,3
435,755	1,44
435,97	1,48
436,186	1,54
436,401	1,55
436,617	1,5
436,832	1,53
437,048	1,51
437,263	1,65
437,478	1,6
437,694	1,58
437,909	1,57
438,125	1,56
438,34	1,45
438,555	1,44
438,771	1,51
438,986	1,58
439,201	1,55
439,417	1,61
439,632	1,67
439,847	1,68
440,062	1,67
440,278	1,79
440,493	1,81
440,708	1,79
440,923	1,79
441,138	1,81
441,353	1,82
441,569	1,76
441,784	1,76
441,999	1,87
442,214	1,8
442,429	1,79
442,644	1,8
442,859	1,78
443,074	1,79
443,289	1,75
443,504	1,76
443,719	1,78
443,934	1,69
444,149	1,71
444,364	1,73
444,579	1,68
444,794	1,71
445,009	1,7
445,224	1,73
445,438	1,72
445,653	1,76
445,868	1,77
446,083	1,76
446,298	1,76
446,513	1,73
446,727	1,79
446,942	1,77
447,157	1,78
447,372	1,8
447,586	1,77
447,801	1,73
448,016	1,78
448,23	1,78
448,445	1,82
448,66	1,76
448,874	1,79
449,089	1,81
449,304	1,87
449,518	1,91
449,733	1,9
449,947	1,9
450,162	1,89
450,376	1,96
450,591	1,99
450,805	1,98
451,02	1,96
451,234	1,87
451,449	1,84
451,663	1,87
451,878	1,88
452,092	1,98
452,307	2
452,521	1,99
452,735	2,01
452,95	2,04
453,164	2,07
453,378	2,11
453,593	2,12
453,807	2,13
454,021	2,08
454,236	2
454,45	2,01
454,664	2,02
454,878	2,03
455,093	2,07
455,307	2,03
455,521	2,06
455,735	2,02
455,949	1,99
456,163	1,99
456,377	1,97
456,592	1,96
456,806	1,96
457,02	1,89
457,234	1,9
457,448	1,93
457,662	1,98
457,876	1,99
458,09	1,99
458,304	2,05
458,518	2,08
458,732	2,06
458,946	2,1
459,16	2,12
459,374	2,14
459,588	2,14
459,801	2,17
460,015	2,18
460,229	2,11
460,443	2,07
460,657	2,08
460,871	2,07
461,085	2,08
461,298	2,03
461,512	2,04
461,726	2
461,94	2,04
462,153	2,08
462,367	2,11
462,581	2,13
462,794	2,18
463,008	2,19
463,222	2,19
463,435	2,15
463,649	2,19
463,863	2,19
464,076	2,16
464,29	2,12
464,503	2,1
464,717	2,05
464,93	2,05
465,144	2,06
465,357	2,09
465,571	2,08
465,784	2,06
465,998	2,12
466,211	2,18
466,425	2,19
466,638	2,19
466,852	2,25
467,065	2,22
467,278	2,17
467,492	2,16
467,705	2,21
467,918	2,19
468,132	2,14
468,345	2,13
468,558	2,13
468,772	2,09
468,985	2,11
469,198	2,17
469,411	2,18
469,624	2,17
469,838	2,2
470,051	2,2
470,264	2,2
470,477	2,25
470,69	2,26
470,903	2,28
471,117	2,27
471,33	2,27
471,543	2,25
471,756	2,29
471,969	2,27
472,182	2,28
472,395	2,28
472,608	2,21
472,821	2,22
473,034	2,19
473,247	2,22
473,46	2,26
473,673	2,21
473,886	2,26
474,098	2,25
474,311	2,26
474,524	2,34
474,737	2,35
474,95	2,38
475,163	2,39
475,376	2,35
475,588	2,37
475,801	2,35
476,014	2,34
476,227	2,36
476,439	2,33
476,652	2,34
476,865	2,35
477,078	2,34
477,29	2,37
477,503	2,35
477,716	2,41
477,928	2,41
478,141	2,4
478,353	2,44
478,566	2,49
478,779	2,48
478,991	2,47
479,204	2,47
479,416	2,5
479,629	2,48
479,841	2,52
480,054	2,52
480,266	2,51
480,479	2,43
480,691	2,48
480,904	2,49
481,116	2,47
481,328	2,44
481,541	2,46
481,753	2,44
481,965	2,45
482,178	2,44
482,39	2,51
482,602	2,5
482,815	2,51
483,027	2,54
483,239	2,57
483,451	2,56
483,664	2,56
483,876	2,53
484,088	2,56
484,3	2,55
484,513	2,52
484,725	2,53
484,937	2,53
485,149	2,54
485,361	2,57
485,573	2,56
485,785	2,58
485,997	2,54
486,209	2,56
486,421	2,59
486,633	2,63
486,845	2,66
487,057	2,69
487,269	2,71
487,481	2,73
487,693	2,76
487,905	2,8
488,117	2,78
488,329	2,8
488,541	2,77
488,753	2,78
488,965	2,77
489,177	2,75
489,388	2,76
489,6	2,78
489,812	2,77
490,024	2,8
490,236	2,8
490,447	2,83
490,659	2,84
490,871	2,9
491,083	2,9
491,294	2,92
491,506	2,91
491,718	2,96
491,929	2,92
492,141	2,91
492,353	2,93
492,564	2,96
492,776	2,91
492,987	2,96
493,199	2,99
493,41	3,01
493,622	3
493,834	3,11
494,045	3,12
494,257	3,14
494,468	3,16
494,679	3,2
494,891	3,2
495,102	3,21
495,314	3,23
495,525	3,26
495,737	3,2
495,948	3,25
496,159	3,24
496,371	3,24
496,582	3,24
496,793	3,25
497,005	3,25
497,216	3,28
497,427	3,29
497,638	3,32
497,85	3,32
498,061	3,36
498,272	3,36
498,483	3,36
498,694	3,37
498,906	3,38
499,117	3,37
499,328	3,42
499,539	3,41
499,75	3,43
499,961	3,43
500,172	3,47
500,383	3,49
500,594	3,55
500,805	3,59
501,016	3,61
501,227	3,59
501,438	3,65
501,649	3,68
501,86	3,7
502,071	3,7
502,282	3,76
502,493	3,75
502,704	3,8
502,915	3,84
503,126	3,89
503,337	3,9
503,547	3,92
503,758	3,97
503,969	4,05
504,18	4,09
504,391	4,17
504,601	4,22
504,812	4,23
505,023	4,24
505,234	4,29
505,444	4,33
505,655	4,36
505,866	4,35
506,076	4,37
506,287	4,39
506,497	4,38
506,708	4,44
506,919	4,48
507,129	4,51
507,34	4,55
507,55	4,56
507,761	4,62
507,971	4,62
508,182	4,67
508,392	4,73
508,603	4,75
508,813	4,77
509,024	4,86
509,234	4,91
509,445	4,96
509,655	4,96
509,865	5,06
510,076	5,08
510,286	5,14
510,497	5,22
510,707	5,31
510,917	5,33
511,127	5,39
511,338	5,43
511,548	5,5
511,758	5,53
511,968	5,58
512,179	5,63
512,389	5,67
512,599	5,7
512,809	5,76
513,019	5,82
513,23	5,91
513,44	5,94
513,65	6,05
513,86	6,1
514,07	6,12
514,28	6,12
514,49	6,18
514,7	6,18
514,91	6,19
515,12	6,21
515,33	6,27
515,54	6,25
515,75	6,3
515,96	6,38
516,17	6,46
516,38	6,52
516,59	6,67
516,8	6,73
517,01	6,85
517,22	6,92
517,429	7,05
517,639	7,11
517,849	7,2
518,059	7,28
518,269	7,37
518,478	7,41
518,688	7,52
518,898	7,55
519,108	7,66
519,317	7,7
519,527	7,8
519,737	7,84
519,946	7,93
520,156	7,99
520,366	8,05
520,575	8,11
520,785	8,18
520,994	8,23
521,204	8,34
521,414	8,43
521,623	8,54
521,833	8,6
522,042	8,68
522,252	8,73
522,461	8,81
522,671	8,91
522,88	9
523,089	9,04
523,299	9,12
523,508	9,15
523,718	9,23
523,927	9,25
524,136	9,3
524,346	9,32
524,555	9,37
524,764	9,41
524,974	9,45
525,183	9,46
525,392	9,56
525,602	9,6
525,811	9,73
526,02	9,81
526,229	9,92
526,438	9,99
526,648	10,05
526,857	10,12
527,066	10,17
527,275	10,19
527,484	10,25
527,693	10,25
527,902	10,35
528,112	10,41
528,321	10,52
528,53	10,55
528,739	10,66
528,948	10,7
529,157	10,77
529,366	10,82
529,575	10,92
529,784	10,89
529,993	10,91
530,201	10,9
530,41	10,94
530,619	10,92
530,828	11,01
531,037	11,03
531,246	11,12
531,455	11,12
531,664	11,21
531,872	11,22
532,081	11,25
532,29	11,32
532,499	11,4
532,707	11,44
532,916	11,48
533,125	11,49
533,334	11,59
533,542	11,59
533,751	11,63
533,96	11,69
534,168	11,71
534,377	11,69
534,585	11,7
534,794	11,72
535,003	11,74
535,211	11,74
535,42	11,8
535,628	11,8
535,837	11,84
536,045	11,84
536,254	11,87
536,462	11,88
536,671	11,93
536,879	11,91
537,088	11,88
537,296	11,87
537,504	11,91
537,713	11,86
537,921	11,88
538,129	11,92
538,338	11,94
538,546	11,89
538,754	11,93
538,963	11,96
539,171	11,99
539,379	12,01
539,587	12,06
539,796	12,08
540,004	12,06
540,212	12,12
540,42	12,18
540,628	12,18
540,837	12,22
541,045	12,23
541,253	12,26
541,461	12,27
541,669	12,3
541,877	12,33
542,085	12,32
542,293	12,32
542,501	12,35
542,709	12,39
542,917	12,4
543,125	12,34
543,333	12,38
543,541	12,38
543,749	12,38
543,957	12,39
544,165	12,41
544,373	12,45
544,581	12,45
544,789	12,47
544,997	12,52
545,204	12,5
545,412	12,49
545,62	12,49
545,828	12,48
546,036	12,5
546,243	12,48
546,451	12,48
546,659	12,51
546,867	12,53
547,074	12,57
547,282	12,59
547,49	12,64
547,697	12,65
547,905	12,65
548,112	12,66
548,32	12,69
548,528	12,66
548,735	12,71
548,943	12,68
549,15	12,71
549,358	12,69
549,565	12,77
549,773	12,78
549,98	12,78
550,188	12,79
550,395	12,85
550,603	12,82
550,81	12,88
551,018	12,87
551,225	12,97
551,432	12,92
551,64	12,97
551,847	12,98
552,054	12,97
552,262	12,94
552,469	13
552,676	12,96
552,884	13
553,091	12,95
553,298	12,96
553,505	12,95
553,713	12,94
553,92	12,95
554,127	12,96
554,334	12,89
554,541	12,92
554,748	12,88
554,955	12,85
555,163	12,84
555,37	12,83
555,577	12,8
555,784	12,79
555,991	12,79
556,198	12,82
556,405	12,77
556,612	12,75
556,819	12,73
557,026	12,7
557,233	12,68
557,44	12,69
557,647	12,63
557,854	12,62
558,06	12,57
558,267	12,61
558,474	12,58
558,681	12,57
558,888	12,57
559,095	12,54
559,301	12,48
559,508	12,5
559,715	12,46
559,922	12,46
560,129	12,4
560,335	12,4
560,542	12,36
560,749	12,43
560,955	12,4
561,162	12,42
561,369	12,37
561,575	12,38
561,782	12,34
561,988	12,31
562,195	12,27
562,402	12,28
562,608	12,15
562,815	12,11
563,021	12,04
563,228	12,04
563,434	11,92
563,641	11,88
563,847	11,87
564,054	11,85
564,26	11,76
564,467	11,73
564,673	11,69
564,879	11,66
565,086	11,61
565,292	11,62
565,498	11,55
565,705	11,5
565,911	11,45
566,117	11,43
566,324	11,35
566,53	11,33
566,736	11,27
566,942	11,19
567,149	11,16
567,355	11,13
567,561	11,07
567,767	11,02
567,973	10,94
568,179	10,94
568,386	10,87
568,592	10,87
568,798	10,85
569,004	10,81
569,21	10,79
569,416	10,78
569,622	10,72
569,828	10,71
570,034	10,66
570,24	10,69
570,446	10,62
570,652	10,62
570,858	10,55
571,064	10,5
571,27	10,44
571,476	10,46
571,681	10,44
571,887	10,42
572,093	10,31
572,299	10,29
572,505	10,2
572,711	10,17
572,916	10,12
573,122	10,06
573,328	10,01
573,534	9,99
573,739	9,95
573,945	9,95
574,151	9,9
574,357	9,92
574,562	9,88
574,768	9,88
574,973	9,86
575,179	9,85
575,385	9,78
575,59	9,76
575,796	9,71
576,001	9,74
576,207	9,68
576,413	9,66
576,618	9,66
576,824	9,67
577,029	9,61
577,234	9,62
577,44	9,59
577,645	9,61
577,851	9,57
578,056	9,54
578,262	9,53
578,467	9,52
578,672	9,45
578,878	9,44
579,083	9,38
579,288	9,41
579,494	9,35
579,699	9,34
579,904	9,31
580,109	9,27
580,315	9,21
580,52	9,22
580,725	9,19
580,93	9,2
581,135	9,14
581,341	9,15
581,546	9,1
581,751	9,1
581,956	9,09
582,161	9,11
582,366	9,06
582,571	9,05
582,776	9,06
582,981	9,03
583,186	8,98
583,391	8,97
583,596	8,9
583,801	8,89
584,006	8,82
584,211	8,77
584,416	8,73
584,621	8,71
584,826	8,69
585,031	8,67
585,236	8,62
585,441	8,62
585,645	8,6
585,85	8,58
586,055	8,53
586,26	8,49
586,465	8,37
586,669	8,31
586,874	8,24
587,079	8,17
587,283	8,11
587,488	8,09
587,693	8,08
587,898	8,12
588,102	8,1
588,307	8,16
588,511	8,16
588,716	8,23
588,921	8,26
589,125	8,29
589,33	8,27
589,534	8,3
589,739	8,28
589,943	8,35
590,148	8,28
590,352	8,3
590,557	8,23
590,761	8,2
590,966	8,25
591,17	8,23
591,374	8,17
591,579	8,15
591,783	8,08
591,988	8,1
592,192	8,04
592,396	8,08
592,601	8,03
592,805	8,04
593,009	8,01
593,213	8,05
593,418	8,07
593,622	8,11
593,826	8,17
594,03	8,22
594,234	8,21
594,439	8,28
594,643	8,26
594,847	8,3
595,051	8,27
595,255	8,26
595,459	8,2
595,663	8,19
595,867	8,16
596,071	8,18
596,275	8,17
596,48	8,16
596,684	8,13
596,888	8,18
597,091	8,18
597,295	8,25
597,499	8,24
597,703	8,24
597,907	8,22
598,111	8,24
598,315	8,2
598,519	8,24
598,723	8,19
598,926	8,19
599,13	8,15
599,334	8,16
599,538	8,14
599,742	8,12
599,945	8,08
600,149	8,18
600,353	8,15
600,557	8,18
600,76	8,21
600,964	8,21
601,168	8,17
601,371	8,19
601,575	8,2
601,778	8,24
601,982	8,13
602,186	8,11
602,389	8,06
602,593	8,04
602,796	8,01
603	8,06
603,203	8,03
603,407	8,04
603,61	7,98
603,814	8,02
604,017	8,03
604,221	8,06
604,424	8,03
604,627	8,02
604,831	8
605,034	8
605,238	7,96
605,441	7,98
605,644	7,91
605,847	7,93
606,051	7,92
606,254	7,95
606,457	7,91
606,661	7,87
606,864	7,84
607,067	7,83
607,27	7,8
607,473	7,84
607,677	7,77
607,88	7,71
608,083	7,64
608,286	7,68
608,489	7,64
608,692	7,63
608,895	7,62
609,098	7,61
609,301	7,57
609,504	7,58
609,707	7,55
609,91	7,55
610,113	7,52
610,316	7,54
610,519	7,52
610,722	7,52
610,925	7,47
611,128	7,48
611,331	7,45
611,534	7,47
611,736	7,48
611,939	7,44
612,142	7,39
612,345	7,39
612,548	7,32
612,75	7,34
612,953	7,27
613,156	7,27
613,359	7,22
613,561	7,15
613,764	7,12
613,967	7,08
614,169	7,03
614,372	7,05
614,575	7,03
614,777	7,03
614,98	6,99
615,183	7,02
615,385	7
615,588	7,01
615,79	7,04
615,993	7,03
616,195	6,97
616,398	6,95
616,6	6,94
616,803	6,99
617,005	6,93
617,208	7
617,41	6,99
617,612	6,97
617,815	7,01
618,017	7,07
618,219	7,06
618,422	7,06
618,624	6,98
618,826	7,03
619,029	6,98
619,231	6,96
619,433	6,92
619,635	6,89
619,838	6,81
620,04	6,77
620,242	6,76
620,444	6,79
620,646	6,74
620,849	6,69
621,051	6,65
621,253	6,66
621,455	6,64
621,657	6,7
621,859	6,68
622,061	6,67
622,263	6,63
622,465	6,71
622,667	6,72
622,869	6,75
623,071	6,75
623,273	6,76
623,475	6,73
623,677	6,81
623,879	6,82
624,081	6,85
624,283	6,7
624,485	6,71
624,686	6,67
624,888	6,69
625,09	6,67
625,292	6,69
625,494	6,64
625,695	6,6
625,897	6,58
626,099	6,7
626,301	6,66
626,502	6,74
626,704	6,71
626,906	6,72
627,107	6,74
627,309	6,73
627,511	6,76
627,712	6,79
627,914	6,75
628,116	6,77
628,317	6,69
628,519	6,7
628,72	6,67
628,922	6,7
629,123	6,68
629,325	6,65
629,526	6,61
629,728	6,58
629,929	6,59
630,131	6,61
630,332	6,58
630,533	6,59
630,735	6,52
630,936	6,54
631,137	6,58
631,339	6,62
631,54	6,64
631,741	6,63
631,943	6,67
632,144	6,7
632,345	6,68
632,546	6,68
632,748	6,65
632,949	6,63
633,15	6,59
633,351	6,59
633,552	6,58
633,754	6,52
633,955	6,49
634,156	6,49
634,357	6,47
634,558	6,5
634,759	6,5
634,96	6,52
635,161	6,55
635,362	6,55
635,563	6,54
635,764	6,57
635,965	6,53
636,166	6,52
636,367	6,48
636,568	6,47
636,769	6,4
636,97	6,37
637,171	6,36
637,371	6,35
637,572	6,31
637,773	6,31
637,974	6,3
638,175	6,25
638,376	6,21
638,576	6,25
638,777	6,19
638,978	6,19
639,179	6,17
639,379	6,2
639,58	6,19
639,781	6,18
639,981	6,18
640,182	6,15
640,383	6,07
640,583	6,09
640,784	5,99
640,984	5,99
641,185	5,9
641,385	5,88
641,586	5,82
641,786	5,82
641,987	5,78
642,187	5,83
642,388	5,8
642,588	5,87
642,789	5,84
642,989	5,9
643,19	5,84
643,39	5,83
643,59	5,79
643,791	5,79
643,991	5,72
644,191	5,66
644,392	5,62
644,592	5,61
644,792	5,5
644,993	5,48
645,193	5,49
645,393	5,51
645,593	5,45
645,793	5,44
645,994	5,47
646,194	5,44
646,394	5,37
646,594	5,32
646,794	5,31
646,994	5,27
647,194	5,25
647,395	5,29
647,595	5,26
647,795	5,23
647,995	5,19
648,195	5,23
648,395	5,25
648,595	5,25
648,795	5,19
648,995	5,16
649,194	5,14
649,394	5,17
649,594	5,11
649,794	5,12
649,994	5,09
650,194	5,11
650,394	5,09
650,594	5,17
650,793	5,2
650,993	5,24
651,193	5,24
651,393	5,32
651,592	5,28
651,792	5,29
651,992	5,23
652,192	5,28
652,391	5,29
652,591	5,23
652,791	5,09
652,99	5,04
653,19	4,93
653,389	4,89
653,589	4,84
653,789	4,82
653,988	4,75
654,188	4,65
654,387	4,64
654,587	4,73
654,786	4,75
654,986	4,82
655,185	4,86
655,385	4,87
655,584	4,88
655,783	4,91
655,983	5
656,182	5,05
656,382	5,03
656,581	5,02
656,78	4,97
656,979	4,94
657,179	4,91
657,378	4,93
657,577	4,89
657,777	4,84
657,976	4,75
658,175	4,73
658,374	4,72
658,573	4,74
658,773	4,74
658,972	4,74
659,171	4,73
659,37	4,77
659,569	4,79
659,768	4,82
659,967	4,77
660,166	4,75
660,365	4,72
660,564	4,72
660,763	4,7
660,962	4,69
661,161	4,61
661,36	4,53
661,559	4,58
661,758	4,62
661,957	4,58
662,156	4,57
662,355	4,57
662,554	4,52
662,753	4,5
662,952	4,48
663,15	4,48
663,349	4,41
663,548	4,42
663,747	4,45
663,946	4,45
664,144	4,37
664,343	4,34
664,542	4,32
664,74	4,33
664,939	4,33
665,138	4,29
665,336	4,24
665,535	4,18
665,734	4,19
665,932	4,27
666,131	4,3
666,329	4,29
666,528	4,3
666,726	4,29
666,925	4,33
667,124	4,35
667,322	4,32
667,52	4,29
667,719	4,24
667,917	4,23
668,116	4,28
668,314	4,22
668,513	4,23
668,711	4,19
668,909	4,17
669,108	4,19
669,306	4,15
669,504	4,16
669,703	4,18
669,901	4,13
670,099	4,2
670,297	4,2
670,496	4,26
670,694	4,29
670,892	4,32
671,09	4,31
671,288	4,31
671,487	4,3
671,685	4,3
671,883	4,28
672,081	4,25
672,279	4,26
672,477	4,24
672,675	4,23
672,873	4,3
673,071	4,25
673,269	4,21
673,467	4,21
673,665	4,21
673,863	4,19
674,061	4,1
674,259	4,11
674,457	4,09
674,655	4,09
674,853	4,16
675,051	4,15
675,249	4,22
675,446	4,16
675,644	4,16
675,842	4,2
676,04	4,19
676,238	4,2
676,435	4,08
676,633	4,07
676,831	4,12
677,028	4,04
677,226	4,1
677,424	4,1
677,621	4,1
677,819	4,12
678,017	4,12
678,214	4,22
678,412	4,24
678,61	4,25
678,807	4,3
679,005	4,26
679,202	4,33
679,4	4,34
679,597	4,37
679,795	4,38
679,992	4,44
680,19	4,45
680,387	4,44
680,584	4,42
680,782	4,46
680,979	4,45
681,177	4,43
681,374	4,42
681,571	4,45
681,769	4,49
681,966	4,52
682,163	4,54
682,361	4,55
682,558	4,65
682,755	4,68
682,952	4,73
683,149	4,76
683,347	4,79
683,544	4,77
683,741	4,72
683,938	4,76
684,135	4,88
684,332	4,87
684,53	4,91
684,727	4,97
684,924	5,06
685,121	5,05
685,318	5,11
685,515	5,23
685,712	5,29
685,909	5,24
686,106	5,22
686,303	5,2
686,5	5,21
686,697	5,22
686,893	5,27
687,09	5,3
687,287	5,3
687,484	5,34
687,681	5,41
687,878	5,59
688,075	5,68
688,271	5,78
688,468	5,83
688,665	5,95
688,862	6
689,058	6,12
689,255	6,19
689,452	6,27
689,648	6,3
689,845	6,42
690,042	6,48
690,238	6,54
690,435	6,59
690,632	6,68
690,828	6,81
691,025	6,96
691,221	7,02
691,418	7,05
691,614	7,05
691,811	7,17
692,007	7,32
692,204	7,47
692,4	7,54
692,597	7,65
692,793	7,77
692,99	7,98
693,186	8,16
693,382	8,48
693,579	8,68
693,775	8,83
693,971	8,95
694,168	9,14
694,364	9,22
694,56	9,36
694,757	9,51
694,953	9,66
695,149	9,65
695,345	9,77
695,542	9,89
695,738	10,02
695,934	10,16
696,13	10,31
696,326	10,44
696,522	10,53
696,718	10,6
696,914	10,75
697,111	10,83
697,307	11,04
697,503	11,21
697,699	11,36
697,895	11,59
698,091	11,68
698,287	11,85
698,483	12,09
698,679	12,31
698,874	12,49
699,07	12,62
699,266	12,81
699,462	12,99
699,658	13,15
699,854	13,34
700,05	13,46
700,246	13,6
700,441	13,87
700,637	14,12
700,833	14,37
701,029	14,57
701,224	14,83
701,42	15,01
701,616	15,31
701,811	15,53
702,007	15,79
702,203	15,88
702,398	16,11
702,594	16,23
702,79	16,44
702,985	16,55
703,181	16,8
703,376	16,96
703,572	17,16
703,767	17,36
703,963	17,59
704,158	17,8
704,354	18,15
704,549	18,42
704,745	18,66
704,94	18,76
705,136	18,99
705,331	19,29
705,526	19,52
705,722	19,74
705,917	19,91
706,112	19,98
706,308	20,06
706,503	20,29
706,698	20,56
706,894	20,76
707,089	20,89
707,284	21,09
707,479	21,38
707,675	21,56
707,87	21,83
708,065	22,08
708,26	22,3
708,455	22,48
708,65	22,68
708,845	22,92
709,04	23,15
709,236	23,22
709,431	23,52
709,626	23,77
709,821	24,07
710,016	24,27
710,211	24,5
710,406	24,66
710,601	24,86
710,796	25,07
710,99	25,42
711,185	25,61
711,38	25,82
711,575	25,99
711,77	26,25
711,965	26,56
712,16	26,83
712,355	26,97
712,549	27,18
712,744	27,26
712,939	27,5
713,134	27,69
713,328	27,91
713,523	28,04
713,718	28,08
713,912	28,21
714,107	28,39
714,302	28,34
714,496	28,5
714,691	28,35
714,886	28,27
715,08	28,25
715,275	28,24
715,469	28,26
715,664	28,35
715,858	28,28
716,053	28,54
716,247	28,56
716,442	28,91
716,636	28,97
716,831	29,15
717,025	29,35
717,22	29,52
717,414	29,53
717,608	29,82
717,803	29,91
717,997	30,27
718,191	30,39
718,386	30,94
718,58	31,38
718,774	32,02
718,969	32,64
719,163	33,32
719,357	33,75
719,551	34,32
719,745	34,58
719,94	34,9
720,134	35,26
720,328	35,56
720,522	35,76
720,716	35,85
720,91	35,78
721,104	35,9
721,298	35,86
721,492	36,03
721,687	36,19
721,881	36,21
722,075	36,23
722,269	36,26
722,462	36,23
722,656	36,6
722,85	36,75
723,044	37,03
723,238	37,31
723,432	37,67
723,626	37,8
723,82	38,06
724,014	38,12
724,207	38,62
724,401	38,84
724,595	39,15
724,789	39,21
724,983	39,29
725,176	39,36
725,37	39,62
725,564	39,68
725,757	40,21
725,951	40,35
726,145	40,61
726,338	40,75
726,532	41,06
726,726	41,27
726,919	41,47
727,113	41,69
727,306	42,06
727,5	42,22
727,694	42,54
727,887	42,56
728,081	42,81
728,274	42,97
728,467	43,31
728,661	43,5
728,854	43,68
729,048	43,66
729,241	43,85
729,435	44,22
729,628	44,72
729,821	45,03
730,015	45,43
730,208	45,67
730,401	45,94
730,595	46,34
730,788	46,87
730,981	47,12
731,174	47,25
731,368	47,52
731,561	47,81
731,754	48
731,947	48,14
732,14	48,37
732,333	48,51
732,527	48,63
732,72	48,83
732,913	49
733,106	49,11
733,299	49,16
733,492	49,38
733,685	49,56
733,878	49,82
734,071	50,06
734,264	50,27
734,457	50,44
734,65	50,66
734,843	50,74
735,036	51,01
735,229	51,09
735,421	51,3
735,614	51,28
735,807	51,38
736	51,46
736,193	51,61
736,386	51,71
736,578	51,99
736,771	52,09
736,964	52,15
737,157	52,23
737,349	52,51
737,542	52,58
737,735	52,76
737,927	52,98
738,12	53,13
738,313	53,19
738,505	53,31
738,698	53,54
738,89	53,7
739,083	53,81
739,276	53,97
739,468	54,12
739,661	54,21
739,853	54,35
740,046	54,57
740,238	54,76
740,431	54,8
740,623	54,89
740,815	55,12
741,008	55,27
741,2	55,44
741,393	55,45
741,585	55,58
741,777	55,56
741,97	55,74
742,162	55,96
742,354	56,16
742,546	56,1
742,739	56,21
742,931	56,14
743,123	56,28
743,315	56,4
743,508	56,55
743,7	56,66
743,892	56,73
744,084	56,82
744,276	56,98
744,468	56,96
744,66	57,17
744,852	57,38
745,044	57,43
745,237	57,48
745,429	57,41
745,621	57,42
745,813	57,52
746,005	57,45
746,197	57,66
746,388	57,64
746,58	57,59
746,772	57,57
746,964	57,67
747,156	57,76
747,348	57,9
747,54	57,86
747,732	58,04
747,923	58,08
748,115	58,17
748,307	58,13
748,499	58,25
748,691	58,3
748,882	58,36
749,074	58,45
749,266	58,46
749,457	58,5
749,649	58,58
749,841	58,6
750,032	58,73
750,224	58,66
750,416	58,7
750,607	58,7
750,799	58,71
750,99	58,89
751,182	58,99
751,373	58,87
751,565	58,89
751,756	58,84
751,948	58,98
752,139	59,07
752,331	59,18
752,522	59,17
752,713	59,1
752,905	59,14
753,096	59,29
753,288	59,36
753,479	59,55
753,67	59,62
753,862	59,5
754,053	59,45
754,244	59,58
754,435	59,69
754,627	59,77
754,818	59,79
755,009	59,87
755,2	59,86
755,391	59,82
755,583	59,85
755,774	59,87
755,965	59,85
756,156	59,85
756,347	59,7
756,538	59,75
756,729	59,71
756,92	59,44
757,111	59,22
757,302	59
757,493	58,88
757,684	58,51
757,875	58,18
758,066	58,1
758,257	57,48
758,448	56,93
758,639	57,13
758,83	57,97
759,021	59,6
759,211	59,72
759,402	59,88
759,593	59,97
759,784	58,86
759,975	58,56
760,165	58,1
760,356	57,83
760,547	57,54
760,738	57,45
760,928	57,02
761,119	56,94
761,31	56,6
761,5	56,9
761,691	57,01
761,882	57,14
762,072	57,25
762,263	57,64
762,453	57,13
762,644	57,6
762,834	57,45
763,025	57,77
763,215	57,74
763,406	57,79
763,596	58,12
763,787	58,56
763,977	58,59
764,168	59,11
764,358	59,22
764,548	59,6
764,739	59,5
764,929	59,91
765,119	60,21
765,31	60,17
765,5	60,22
765,69	60,38
765,881	60,43
766,071	60,47
766,261	60,48
766,451	60,73
766,641	60,75
766,832	60,7
767,022	60,77
767,212	60,79
767,402	60,73
767,592	60,85
767,782	60,99
767,972	61,15
768,162	61,03
768,353	61,06
768,543	61,08
768,733	61,2
768,923	61,18
769,113	61,38
769,303	61,22
769,493	61,33
769,682	61,06
769,872	61,1
770,062	61,06
770,252	61,17
770,442	61,17
770,632	61,21
770,822	61,02
771,012	61,13
771,201	60,95
771,391	61,18
771,581	61,16
771,771	61,29
771,96	61,22
772,15	61,29
772,34	61,35
772,529	61,55
772,719	61,73
772,909	61,81
773,098	61,73
773,288	61,99
773,478	61,86
773,667	61,99
773,857	61,85
774,046	61,84
774,236	61,79
774,425	61,66
774,615	61,55
774,804	61,63
774,994	61,47
775,183	61,48
775,373	61,47
775,562	61,55
775,752	61,69
775,941	61,66
776,13	61,64
776,32	61,8
776,509	61,84
776,698	61,91
776,888	62,04
777,077	62,09
777,266	62,04
777,456	62
777,645	62,01
777,834	61,97
778,023	62,05
778,212	61,99
778,402	61,82
778,591	61,71
778,78	61,72
778,969	61,8
779,158	61,69
779,347	61,82
779,536	61,77
779,725	61,88
779,914	62,05
780,103	62,14
780,292	62,08
780,481	62
780,67	61,93
780,859	61,97
781,048	61,77
781,237	61,93
781,426	61,69
781,615	61,54
781,804	61,57
781,993	61,8
782,182	61,84
782,37	61,88
782,559	61,88
782,748	62,02
782,937	61,98
783,126	61,97
783,314	62,01
783,503	61,99
783,692	61,91
783,88	62,01
784,069	61,85
784,258	61,95
784,446	61,98
784,635	61,91
784,824	61,89
785,012	61,8
785,201	61,76
785,389	61,68
785,578	61,54
785,766	61,89
785,955	61,68
786,143	61,57
786,332	61,59
786,52	61,68
786,709	61,77
786,897	61,83
787,086	61,95
787,274	61,93
787,462	61,64
787,651	61,67
787,839	61,69
788,027	61,61
788,216	61,52
788,404	61,38
788,592	61,23
788,781	61,27
788,969	61,31
789,157	61,47
789,345	61,59
789,533	61,82
789,722	62,01
789,91	62,07
790,098	62,23
790,286	62,35
790,474	62,18
790,662	62,11
790,85	61,95
791,038	61,96
791,226	61,73
791,414	61,7
791,602	61,8
791,79	61,64
791,978	61,68
792,166	61,79
792,354	61,96
792,542	62,06
792,73	61,99
792,918	62,06
793,106	62,08
793,294	62,03
793,482	62,05
793,669	62,01
793,857	61,83
794,045	61,67
794,233	61,58
794,421	61,63
794,608	61,51
794,796	61,67
794,984	61,49
795,171	61,64
795,359	61,77
795,547	61,86
795,734	61,78
795,922	61,86
796,11	61,78
796,297	62,14
796,485	62,03
796,672	62,3
796,86	62,24
797,047	62,19
797,235	62,17
797,422	62,23
797,61	62,2
797,797	62,39
797,985	62,03
798,172	61,98
798,36	61,95
798,547	62,07
798,734	61,92
798,922	62
799,109	62,2
799,296	62,39
799,484	62,17
799,671	62,24
799,858	62,16
800,046	61,93
800,233	61,77
800,42	61,87
800,607	61,93
800,794	61,73
800,982	61,65
801,169	61,83
801,356	61,97
801,543	62,08
801,73	62,3
801,917	62,3
802,104	62,25
802,291	62,35
802,478	62,59
802,665	62,61
802,852	62,56
803,039	62,62
803,226	62,56
803,413	62,64
803,6	62,74
803,787	62,99
803,974	63,08
804,161	63,17
804,348	63,27
804,535	63,41
804,722	63,16
804,908	63,41
805,095	63,42
805,282	63,38
805,469	63,42
805,655	63,21
805,842	63,03
806,029	62,85
806,216	62,69
806,402	62,78
806,589	62,71
806,776	62,44
806,962	62,29
807,149	62,17
807,335	62,14
807,522	62,21
807,709	62,26
807,895	62,3
808,082	62,51
808,268	62,45
808,455	62,49
808,641	62,53
808,828	62,27
809,014	62,08
809,201	61,75
809,387	61,72
809,573	61,59
809,76	61,34
809,946	61,3
810,133	61,32
810,319	61,51
810,505	61,82
810,691	62,25
810,878	62,37
811,064	62,18
811,25	62,09
811,436	61,89
811,623	61,72
811,809	61,51
811,995	61,16
812,181	60,86
812,367	60,47
812,554	60,48
812,74	60,57
812,926	60,49
813,112	60,75
813,298	60,8
813,484	60,93
813,67	61,07
813,856	60,81
814,042	60,46
814,228	60,29
814,414	59,68
814,6	60,31
814,786	60,41
814,972	60,3
815,158	59,98
815,344	59,75
815,529	59,87
815,715	60,33
815,901	60,65
816,087	61,29
816,273	60,66
816,458	60,61
816,644	60,88
816,83	61,21
817,016	61,59
817,201	62,14
817,387	62,07
817,573	61,94
817,758	62
817,944	62,37
818,13	61,97
818,315	61,68
818,501	61,87
818,686	61,85
818,872	61,77
819,058	62,08
819,243	62,21
819,429	61,96
819,614	61,87
819,8	62,18
819,985	62,15
820,17	61,85
820,356	61,91
820,541	61,58
820,727	61,22
820,912	61
821,097	61,37
821,283	61,3
821,468	61,22
821,653	61,38
821,839	61,81
822,024	61,83
822,209	62,31
822,394	62,31
822,58	62,45
822,765	62,61
822,95	62,85
823,135	62,81
823,32	63,07
823,506	63,18
823,691	63,31
823,876	63,3
824,061	62,96
824,246	63,11
824,431	62,64
824,616	62,5
824,801	62,37
824,986	62,46
825,171	62,29
825,356	62,15
825,541	61,78
825,726	62,08
825,911	61,87
826,096	61,97
826,281	62,06
826,465	62,25
826,65	62,02
826,835	62,18
827,02	62,37
827,205	62,56
827,39	62,68
827,574	62,88
827,759	63,42
827,944	63,16
828,128	62,92
828,313	63,05
828,498	63,25
828,683	63,04
828,867	63,04
829,052	62,87
829,236	62,48
829,421	62,31
829,606	62,58
829,79	62,88
829,975	62,81
830,159	62,74
830,344	62,66
830,528	62,86
830,713	62,98
830,897	62,94
831,082	62,79
831,266	62,89
831,45	63,09
831,635	62,97
831,819	62,97
832,004	63,29
832,188	63,22
832,372	63,61
832,557	63,72
832,741	63,67
832,925	63,69
833,109	63,98
833,294	64,16
833,478	64,49
833,662	64,48
833,846	64,6
834,03	64,47
834,215	64,77
834,399	64,69
834,583	64,6
834,767	64,4
834,951	64,31
835,135	63,9
835,319	63,83
835,503	63,88
835,687	64,22
835,871	64,34
836,055	64,35
836,239	64,09
836,423	64,06
836,607	63,96
836,791	63,72
836,975	63,86
837,159	63,83
837,343	63,44
837,526	63,57
837,71	63,62
837,894	63,77
838,078	63,85
838,262	64,02
838,445	64,21
838,629	64,49
838,813	64,43
838,997	64,47
839,18	64,05
839,364	64,28
839,548	64,56
839,731	64,61
839,915	64,9
840,099	65,31
840,282	64,82
840,466	65
840,649	64,94
840,833	64,96
841,016	64,89
841,2	64,94
841,383	65,04
841,567	64,9
841,75	64,7
841,934	64,89
842,117	64,82
842,301	65,25
842,484	65,36
842,667	65,46
842,851	65,11
843,034	65
843,217	65,12
843,401	64,99
843,584	65,14
843,767	64,97
843,951	64,71
844,134	64,78
844,317	64,87
844,5	65,18
844,683	65,09
844,867	64,95
845,05	65,01
845,233	65,06
845,416	65,21
845,599	65,52
845,782	65,39
845,965	65,35
846,148	65,34
846,331	65,34
846,514	65,01
846,697	64,98
846,88	64,75
847,063	64,65
847,246	64,19
847,429	64,23
847,612	63,86
847,795	64,01
847,978	64,06
848,161	64,65
848,344	64,74
848,526	64,57
848,709	64,77
848,892	64,77
849,075	64,59
849,258	64,98
849,44	64,83
849,623	64,61
849,806	64,66
849,988	65,07
850,171	65,1
850,354	65,13
850,536	65,32
850,719	65,95
850,902	66,06
851,084	66,18
851,267	66,45
851,449	66,03
851,632	65,72
851,814	65,98
851,997	65,7
852,179	65,82
852,362	65,14
852,544	65,59
852,727	65,08
852,909	65,32
853,092	65,33
853,274	65,58
853,456	65,7
853,639	65,94
853,821	66,03
854,003	66,59
854,186	66,02
854,368	66,46
854,55	66,16
854,732	66,36
854,915	66,07
855,097	66,13
855,279	66,27
855,461	66,09
855,643	65,82
855,826	65,8
856,008	65,84
856,19	66,16
856,372	66,05
856,554	65,97
856,736	65,65
856,918	65,46
857,1	65,53
857,282	65,15
857,464	65,43
857,646	65,21
857,828	64,99
858,01	65,47
858,192	65,35
858,374	65,56
858,556	65,71
858,738	65,36
858,919	65,73
859,101	65,57
859,283	65,7
859,465	65,89
859,647	65,51
859,828	65,72
860,01	65,92
860,192	66,06
860,374	66,54
860,555	66,66
860,737	66,57
860,919	66,55
861,1	66,37
861,282	66,46
861,464	66,51
861,645	66,66
861,827	66,34
862,008	66,17
862,19	66,33
862,371	66,17
862,553	66,04
862,734	66,16
862,916	66,28
863,097	66,16
863,279	65,66
863,46	66,09
863,642	66,17
863,823	65,86
864,004	66,45
864,186	66,44
864,367	66,38
864,548	66,56
864,73	67,03
864,911	67,13
865,092	66,67
865,274	67,1
865,455	67,03
865,636	66,82
865,817	66,68
865,998	66,96
866,18	66,88
866,361	66,52
866,542	66,34
866,723	66,28
866,904	66,09
867,085	66,17
867,266	66,49
867,447	66,87
867,628	66,61
867,809	66,51
867,99	66,7
868,171	67,36
868,352	67,65
868,533	67,61
868,714	67,68
868,895	67,48
869,076	67,31
869,257	67,26
869,438	66,97
869,619	66,89
869,799	66,55
869,98	66,4
870,161	66,08
870,342	66,03
870,523	66,21
870,703	66,52
870,884	66,56
871,065	66,66
871,245	66,56
871,426	66,85
871,607	67,07
871,787	67,6
871,968	67,92
872,149	67,69
872,329	67,41
872,51	67,4
872,69	67,82
872,871	67,86
873,051	67,73
873,232	67,35
873,412	67,22
873,593	67,25
873,773	67,47
873,954	67,42
874,134	67,54
874,314	67,49
874,495	67,56
874,675	67,43
874,856	67,31
875,036	66,95
875,216	66,93
875,396	66,71
875,577	66,39
875,757	66,18
875,937	66,28
876,117	66,5
876,298	66,55
876,478	66,91
876,658	66,8
876,838	66,34
877,018	66,59
877,198	67,12
877,379	67,35
877,559	66,67
877,739	66,38
877,919	66,04
878,099	66,16
878,279	66,37
878,459	66,31
878,639	65,94
878,819	65,96
878,999	65,84
879,179	66,13
879,359	66,06
879,538	66,49
879,718	66,66
879,898	67,07
880,078	67,25
880,258	67,25
880,438	67,24
880,617	67,25
880,797	67,22
880,977	67,36
881,157	67,67
881,336	67,33
881,516	66,98
881,696	67,27
881,876	67,42
882,055	67,17
882,235	67,09
882,414	66,77
882,594	66,65
882,774	66,66
882,953	67,13
883,133	67,13
883,312	67,28
883,492	67,5
883,671	67,54
883,851	67,77
884,03	68,57
884,21	68,59
884,389	68,34
884,569	68,07
884,748	68,47
884,927	68,67
885,107	68,05
885,286	68,22
885,465	67,99
885,645	67,46
885,824	67,64
886,003	68,27
886,182	67,98
886,362	68,09
886,541	68,1
886,72	68,82
886,899	68,72
887,078	68,89
887,258	69,2
887,437	69,25
887,616	68,71
887,795	68,93
887,974	68,48
888,153	68,02
888,332	67,51
888,511	67,62
888,69	67,28
888,869	67,01
889,048	67,5
889,227	67,81
889,406	68,13
889,585	68,41
889,764	68,5
889,943	68,66
890,122	68,72
890,301	69,34
890,479	69,79
890,658	69,64
890,837	69,19
891,016	69,19
891,195	69,04
891,373	68,74
891,552	67,99
891,731	68,48
891,909	68,54
892,088	67,64
892,267	67,65
892,446	67,02
892,624	66,34
892,803	66,48
892,981	65,98
893,16	67,36
893,338	66,59
893,517	66,2
893,696	67,38
893,874	67,38
894,053	68,1
894,231	68,48
894,41	69,09
894,588	69,87
894,766	69,62
894,945	70,76
895,123	70,57
895,302	70,65
895,48	70,36
895,658	70,46
895,837	71,57
896,015	70,28
896,193	69,88
896,371	69,22
896,55	68,86
896,728	70,9
896,906	72,02
897,084	73,41
897,262	74,48
897,441	73,89
897,619	74,4
897,797	76,64
897,975	77,74
898,153	76,16
898,331	72,6
898,509	73,3
898,687	71,34
898,865	71,48
899,043	70,38
899,221	70,59
899,399	70,57
899,577	71,07
899,755	72,15
899,933	75,14
900,111	71,7
900,289	71,81
900,467	70,5
900,645	71,7
900,822	71,18
901	70,03
901,178	70,73
901,356	69,62
901,534	68,99
901,711	69,11
901,889	68,89
902,067	69,35
902,244	70,22
902,422	71,18
902,6	71,74
902,777	70,29
902,955	70,5
903,133	70,66
903,31	70,26
903,488	71,13
903,665	71,09
903,843	69,77
904,02	68,89
904,198	67,58
904,375	67,99
904,553	68,69
904,73	69,4
904,908	70,64
905,085	71,94
905,263	71,27
905,44	73,01
905,617	73,78
905,795	75,33
905,972	77,51
906,149	76,42
906,327	75,31
906,504	76,23
906,681	71,78
906,858	71,85
907,036	71,12
907,213	73,24
907,39	71,4
907,567	70,12
907,744	72,16
907,921	72,88
908,099	72,63
908,276	74,96
908,453	75,75
908,63	76,21
908,807	73,27
908,984	74,12
909,161	75,05
909,338	74,34
909,515	74,39
909,692	74,07
909,869	72,77
910,046	73
910,223	72,66
910,4	72,45
910,576	72,42
910,753	70,93
910,93	70,28
911,107	69
911,284	69,33
911,461	72,05
911,637	72,53
911,814	71,43
911,991	71,44
912,168	71,48
912,344	72,88
912,521	74,78
912,698	76,74
912,874	76,9
913,051	76,7
913,227	77,14
913,404	77,07
913,581	78,92
913,757	82,07
913,934	80,9
914,11	79,2
914,287	75,38
914,463	77,43
914,64	77,43
914,816	75,67
914,993	74,05
915,169	74,09
915,345	76,02
915,522	76,92
915,698	78,63
915,875	81,25
916,051	80,82
916,227	81,55
916,403	84,01
916,58	85,56
916,756	84,81
916,932	80,71
917,108	81,39
917,285	80,53
917,461	77,75
917,637	75,58
917,813	74,03
917,989	72,89
918,165	72,34
918,342	72,24
918,518	72,69
918,694	71,39
918,87	71,2
919,046	72,5
919,222	72,85
919,398	74,34
919,574	74,07
919,75	75,05
919,926	74,14
920,102	73,04
920,278	73,75
920,453	73,66
920,629	73,25
920,805	74,29
920,981	73,19
921,157	74,73
921,333	74,32
921,508	76,04
921,684	78,62
921,86	80,94
922,036	81,54
922,211	82,04
922,387	81,06
922,563	82,6
922,739	79,98
922,914	81,65
923,09	80,47
923,265	78,92
923,441	77,74
923,617	79,08
923,792	81,26
923,968	80,11
924,143	79,55
924,319	81,19
924,494	79,39
924,67	78,26
924,845	78,06
925,021	77,43
925,196	76,3
925,371	74,82
925,547	75,33
925,722	75,25
925,897	73,79
926,073	76,82
926,248	78,33
926,423	82,18
926,599	80,9
926,774	80,79
926,949	80,78
927,124	80,12
927,3	78,5
927,475	81,67
927,65	80,99
927,825	84,25
928	86,66
928,175	94,27
928,351	98,96
928,526	101,77
928,701	115,91
928,876	118,34
929,051	126,22
929,226	134,69
929,401	140,49
929,576	144,7
929,751	148,23
929,926	153,32
930,101	156,5
930,276	150,27
930,45	163,78
930,625	143,98
930,8	131,95
930,975	146
931,15	179,22
931,325	153,76
931,499	176,27
931,674	219,19
931,849	260,68
932,024	360,29
932,198	510,47
932,373	682,36
932,548	255,37
932,722	163,47
932,897	234,87
933,072	194,49
933,246	188,21
933,421	145,11
933,595	124,67
933,77	156,67
933,945	127,81
934,119	204,2
934,294	199,23
934,468	132,73
934,643	36,01
934,817	66,89
934,991	75,54
935,166	67,18
935,34	43,21
935,515	64,62
935,689	40,93
935,863	69,07
936,038	97,55
936,212	184,33
936,386	115,2
936,561	117,1
936,735	135,1
936,909	117,14
937,083	109,82
937,257	102,17
937,432	99,05
937,606	76,94
937,78	75,36
937,954	79,78
938,128	79,47
938,302	82,14
938,476	84,24
938,65	91,34
938,825	125,74
938,999	129,57
939,173	144,9
939,347	115,25
939,521	113,2
939,694	127,31
939,868	117,71
940,042	122,38
940,216	105,02
940,39	91,45
940,564	103,87
940,738	92,68
940,912	144,32
941,086	292,94
941,259	169,95
941,433	291,33
941,607	204,98
941,781	185,88
941,954	159,61
942,128	85,27
942,302	98,66
942,475	100,64
942,649	75,3
942,823	97,07
942,996	93,85
943,17	130,71
943,344	245,58
943,517	236,34
943,691	215,77
943,864	266,6
944,038	189,17
944,211	104,93
944,385	124,66
944,558	105,08
944,732	53,91
944,905	58,27
945,078	62,1
945,252	69,26
945,425	99,17
945,599	112
945,772	110,62
945,945	90,81
946,118	66,91
946,292	126,84
946,465	210,56
946,638	190,6
946,812	168,26
946,985	113,47
947,158	91,14
947,331	106,78
947,504	98,02
947,677	93,47
947,851	100,86
948,024	93,74
948,197	162,83
948,37	138,58
948,543	131,72
948,716	124,11
948,889	137,5
949,062	138,22
949,235	142,34
949,408	158,89
949,581	151,61
949,754	99,15
949,927	121,96
950,1	111,61
950,272	337,5
950,445	-378,55
950,618	966,62
950,791	447,33
950,964	270,27
951,137	365,03
951,309	285,59
951,482	239,85
951,655	301,33
951,828	249,52
952	178,84
952,173	227,79
952,346	316,48
952,518	547,8
952,691	409,18
952,863	542,86
953,036	690,23
953,209	637,97
953,381	-800,14
953,554	-333,72
953,726	1547,48
953,899	249,83
954,071	180,4
954,244	151,03
954,416	177,26
954,589	165,52
954,761	142,1
954,933	123,05
955,106	121,93
955,278	107,61
955,451	117,46
955,623	132,86
955,795	95,71
955,967	105,26
956,14	96,29
956,312	107,17
956,484	94,76
956,656	101,33
956,829	149,21
957,001	139,47
957,173	146,42
957,345	184,41
957,517	162,07
957,689	208,22
957,861	203,58
958,034	187,91
958,206	166,73
958,378	124,64
958,55	133,12
958,722	123,94
958,894	122,19
959,066	120,34
959,238	119,78
959,41	119,21
959,581	144,53
959,753	180,17
959,925	178,84
960,097	148,63
960,269	143,45
960,441	133,29
960,613	148,34
960,784	113,96
960,956	107,71
961,128	86,6
961,3	67,02
961,471	55,55
961,643	90,12
961,815	89,24
961,986	84,8
962,158	84,66
962,33	80,96
962,501	56,07
962,673	65,8
962,845	66,36
963,016	60,67
963,188	47,18
963,359	51,78
963,531	55,76
963,702	70,09
963,874	110,69
964,045	137,17
964,217	120,41
964,388	120,23
964,559	135,38
964,731	120,99
964,902	115,68
965,073	102,89
965,245	92,84
965,416	66,65
965,587	66,88
965,759	72,53
965,93	78,15
966,101	78,85
966,272	87,76
966,444	91,19
966,615	95,62
966,786	94,12
966,957	104,83
967,128	110,81
967,299	114,34
967,47	117,3
967,641	102,68
967,813	102,61
967,984	99
968,155	92,23
968,326	92,7
968,497	100,66
968,668	93,44
968,839	91,99
969,009	87,43
969,18	97,77
969,351	94,37
969,522	94,31
969,693	98,57
969,864	89,18
970,035	84,76
970,206	92,17
970,376	93,62
970,547	90,28
970,718	88,83
970,889	85,69
971,059	86,65
971,23	87,41
971,401	97,08
971,571	100,04
971,742	90,12
971,913	85,59
972,083	82,3
972,254	82,32
972,424	84,43
972,595	81,55
972,766	86,32
972,936	81,49
973,107	81,55
973,277	84,91
973,448	77,9
973,618	79,56
973,788	79,58
973,959	80,61
974,129	87,01
974,3	80,61
974,47	75,26
974,64	69,76
974,811	82,82
974,981	99,37
975,151	110,39
975,322	107,85
975,492	115,47
975,662	115,81
975,832	114,33
976,002	129,34
976,173	122,31
976,343	116,35
976,513	104,29
976,683	84,77
976,853	88,32
977,023	88,32
977,193	80,99
977,363	77,89
977,533	70,27
977,704	79,5
977,874	78,53
978,044	77,11
978,213	90,06
978,383	84,33
978,553	81,4
978,723	79,18
978,893	79,6
979,063	86,2
979,233	79,65
979,403	80,11
979,573	82,36
979,742	84,34
979,912	87,15
980,082	79,67
980,252	80,98
980,421	77,61
980,591	79,1
980,761	86,75
980,931	84,57
981,1	84,38
981,27	85,63
981,439	88,44
981,609	98,59
981,779	99,13
981,948	97,7
982,118	86,96
982,287	83,42
982,457	81,11
982,626	80,05
982,796	73,94
982,965	71,83
983,135	67,74
983,304	70,24
983,474	70,46
983,643	74,11
983,812	69,41
983,982	67,98
984,151	69,66
984,32	74,87
984,49	75,39
984,659	78,49
984,828	72,56
984,998	83,52
985,167	85,2
985,336	105,7
985,505	109,73
985,674	116,73
985,844	114,19
986,013	109,52
986,182	105,44
986,351	104,76
986,52	97,7
986,689	102,27
986,858	96,2
987,027	92,59
987,196	92,01
987,365	86,82
987,534	87,71
987,703	89,55
987,872	91,84
988,041	88,68
988,21	88,56
988,379	89,12
988,548	101,5
988,717	94,41
988,885	106,57
989,054	104,13
989,223	105,11
989,392	98,11
989,561	101,97
989,729	95,39
989,898	94,43
990,067	83,05
990,235	84,4
990,404	75,89
990,573	76,68
990,741	72,19
990,91	71,47
991,079	65,48
991,247	63,45
991,416	67,24
991,584	69,89
991,753	70,36
991,921	68,97
992,09	73,59
992,258	78,09
992,427	79,43
992,595	86,14
992,764	90,1
992,932	88,29
993,1	92,78
993,269	96,57
993,437	105,95
993,605	94,72
993,774	87,95
993,942	91,83
994,11	91,35
994,279	96,03
994,447	89,11
994,615	85,77
994,783	81,35
994,951	74,62
995,12	82,92
995,288	90,37
995,456	87,84
995,624	88,89
995,792	85,84
995,96	87,81
996,128	90,79
996,296	90,08
996,464	100,48
996,632	95,16
996,8	89,69
996,968	85,06
997,136	85,88
997,304	90,48
997,472	90,59
997,64	86,78
997,808	88,69
997,976	88,66
998,144	96,49
998,311	110,89
998,479	109,29
998,647	112,05
998,815	89,79
998,983	91,86
999,15	101,36
999,318	97,89
999,486	95,42
999,653	85,64
999,821	76,18
999,989	77,08
1000,156	68,92
1000,324	85,25
1000,492	86,99
1000,659	79,3
1000,827	74,83
1000,994	70,34
1001,162	77,57
1001,329	84,81
1001,497	91,44
1001,664	105,02
1001,832	99,99
1001,999	115,89
1002,166	106,2
1002,334	117,72
1002,501	128,85
1002,669	124,81
1002,836	124,26
1003,003	129,96
1003,171	117,42
1003,338	107,91
1003,505	90,8
1003,672	98,25
1003,84	90,82
1004,007	85,72
1004,174	100,29
1004,341	98,63
1004,508	96
1004,675	93,83
1004,843	104,1
1005,01	100,17
1005,177	99,25
1005,344	94,67
1005,511	93,71
1005,678	93,55
1005,845	97,3
1006,012	94,58
1006,179	101,56
1006,346	98,97
1006,513	103,97
1006,68	105,36
1006,847	115,92
1007,013	111,8
1007,18	106,77
1007,347	105,19
1007,514	104,46
1007,681	111,85
1007,848	111,15
1008,014	112,58
1008,181	131,84
1008,348	131,57
1008,515	131,04
1008,681	132,72
1008,848	151,55
1009,015	186,6
1009,181	166,89
1009,348	187,4
1009,515	175,92
1009,681	138,78
1009,848	128,02
1010,014	118,68
1010,181	116,42
1010,347	111,47
1010,514	98,1
1010,68	103,44
1010,847	107,89
1011,013	97,19
1011,18	101,82
1011,346	105,57
1011,513	107,43
1011,679	117,52
1011,845	108,75
1012,012	109,76
1012,178	119,29
1012,344	115,68
1012,511	101,55
1012,677	105,17
1012,843	131,15
1013,009	148,32
1013,175	134,42
1013,342	135,87
1013,508	140,15
1013,674	134,72
1013,84	120,58
1014,006	126,82
1014,172	111,38
1014,338	94,81
1014,505	91,3
1014,671	94,03
1014,837	88,78
1015,003	86,17
1015,169	94,13
1015,335	89,18
1015,501	91,82
1015,666	97,62
1015,832	105,3
1015,998	104,56
1016,164	117,52
1016,33	118,55
1016,496	117,21
1016,662	102,52
1016,828	122,21
1016,993	112,59
1017,159	110,46
1017,325	114,37
1017,491	115,62
1017,656	100,78
1017,822	110,02
1017,988	110,15
1018,153	114,91
1018,319	106,08
1018,485	114,38
1018,65	130,92
1018,816	129,59
1018,981	109,15
1019,147	115,88
1019,313	101,81
1019,478	108,28
1019,644	109,17
1019,809	108,77
1019,975	103,75
1020,14	93,79
1020,305	85,47
1020,471	196,91
1020,636	199,65
1020,802	276,33
1020,967	302,04
1021,132	328,2
1021,298	402,37
1021,463	522,43
1021,628	652,25
1021,793	769,33
1021,959	445,89
1022,124	199,1
1022,289	153,12
1022,454	126,69
1022,619	98,68
1022,785	91,88
1022,95	88,39
1023,115	98,39
1023,28	81,04
1023,445	81,17
1023,61	78,88
1023,775	74,29
1023,94	72,97
1024,105	83,7
1024,27	77,37
1024,435	80,58
1024,6	75,19
1024,765	93,18
1024,93	74,4
1025,095	95,16
1025,26	106,71
1025,425	115,41
1025,589	136,64
1025,754	125,15
1025,919	125,83
1026,084	129,17
1026,249	108,73
1026,413	255,39
1026,578	228
1026,743	232,29
1026,908	222,06
1027,072	240,92
1027,237	323,74
1027,402	305,43
1027,566	363,99
1027,731	288,26
1027,895	210,71
1028,06	178,5
1028,225	180,01
1028,389	213,9
1028,554	204,84
1028,718	213,69
1028,883	205,44
1029,047	205,44
1029,211	193,95
1029,376	161,33
1029,54	127,63
1029,705	114,45
1029,869	119,8
1030,033	116,82
1030,198	112,04
1030,362	106,51
1030,526	110,97
1030,691	116,85
1030,855	140,33
1031,019	181,54
1031,183	222,08
1031,348	150,62
1031,512	153,91
1031,676	163,11
1031,84	273,76
1032,004	159,75
1032,168	183,88
1032,332	140,32
1032,496	89,35
1032,661	95,45
1032,825	110,73
1032,989	104,28
1033,153	94,18
1033,317	88,69
1033,481	112,74
1033,644	145,48
1033,808	124,32
1033,972	196,66
1034,136	152,59
1034,3	167,05
1034,464	238,52
1034,628	1420,64
1034,792	-4306,9
1034,955	180,16
1035,119	117,13
1035,283	160,08
1035,447	121,73
1035,61	184,82
1035,774	218,03
1035,938	171,56
1036,102	146,92
1036,265	117,82
1036,429	145,19
1036,592	152,56
1036,756	156,21
1036,92	169,98
1037,083	576,4
1037,247	299,81
1037,41	220,38
1037,574	-5340,74
1037,737	1876,06
1037,901	296,87
1038,064	183,14
1038,228	154,37
1038,391	126,01
1038,554	98,37
1038,718	81,7
1038,881	85,41
1039,044	116,93
1039,208	114,28
1039,371	139,93
1039,534	160,67
1039,698	129,15
1039,861	137,72
1040,024	192,31
1040,187	343,62
1040,351	422,7
1040,514	206,85
1040,677	163,93
1040,84	122,92
1041,003	99,97
1041,166	116,91
1041,329	84,28
1041,492	90,72
1041,655	85,42
1041,818	70,04
1041,981	52,04
1042,144	66,46
1042,307	72,24
1042,47	70,75
1042,633	94,55
1042,796	141,05
1042,959	121,75
1043,122	121,92
1043,285	101,89
1043,448	179,41
1043,611	183,53
1043,773	182,55
1043,936	102,69
1044,099	65,69
1044,262	70,17
1044,424	64,54
1044,587	68,85
1044,75	86
1044,913	57,21
1045,075	50,9
1045,238	56,21
1045,4	69,34
1045,563	95,94
1045,726	92,8
1045,888	70,63
1046,051	125,59
1046,213	-243,3
1046,376	-725,36
1046,538	-59,63
1046,701	-349,79
1046,863	-363,08
1047,026	-997,88
1047,188	-176,06
1047,351	-179,82
1047,513	-407,45
1047,675	489,36
1047,838	2245,53
1048	201,76
1048,162	106,7
1048,325	109,57
1048,487	100,84
1048,649	78,98
1048,811	73,23
1048,974	83,01
1049,136	60,19
